# file: i.LSST.pb
# comment: LSST Throughputs files created from syseng_throughputs repo
# comment: Version 1.1
# comment: sha1 acd2b1389ef7356e2125ef6f9dc40a5ffe2af05b
# comment: Aerosols added to atmosphere
# comment: Wavelen_cutoff_BLUE 675.90
# comment: Wavelen_cutoff_RED 833.00
# comment: Wavelength(nm)  Throughput(0-1)
# comment: xref and bandwidth computed from the passband itself
# xtype: lam
# description: full system QE
# bandwidth: 54.62 nm
# instrument: LSST
# ytype: qe
# xref: 754.6
# filter: i
# url: https://github.com/lsst/throughputs/tree/master/baseline
# xunit: nm
 675.500000    0.000000
 675.600000    0.000000
 675.700000    0.000000
 675.800000    0.000000
 675.900000    0.000000
 676.000000    0.000000
 676.100000    0.000897
 676.200000    0.001795
 676.300000    0.002693
 676.400000    0.003590
 676.500000    0.004464
 676.600000    0.005337
 676.700000    0.006233
 676.800000    0.007129
 676.900000    0.008025
 677.000000    0.008920
 677.100000    0.009816
 677.200000    0.010712
 677.300000    0.011585
 677.400000    0.012457
 677.500000    0.013353
 677.600000    0.014252
 677.700000    0.015151
 677.800000    0.016050
 677.900000    0.016950
 678.000000    0.017850
 678.100000    0.018722
 678.200000    0.019595
 678.300000    0.020491
 678.400000    0.021387
 678.500000    0.022283
 678.600000    0.023179
 678.700000    0.024075
 678.800000    0.024971
 678.900000    0.025843
 679.000000    0.026715
 679.100000    0.027607
 679.200000    0.028498
 679.300000    0.029390
 679.400000    0.030281
 679.500000    0.031171
 679.600000    0.032061
 679.700000    0.032928
 679.800000    0.033794
 679.900000    0.034683
 680.000000    0.035572
 680.100000    0.036470
 680.200000    0.037369
 680.300000    0.038267
 680.400000    0.039166
 680.500000    0.040041
 680.600000    0.040908
 680.700000    0.041798
 680.800000    0.042688
 680.900000    0.043578
 681.000000    0.044467
 681.100000    0.046248
 681.200000    0.048028
 681.300000    0.049784
 681.400000    0.051539
 681.500000    0.053317
 681.600000    0.055095
 681.700000    0.056848
 681.800000    0.058600
 681.900000    0.060375
 682.000000    0.062150
 682.100000    0.063905
 682.200000    0.065660
 682.300000    0.067437
 682.400000    0.069214
 682.500000    0.070968
 682.600000    0.072736
 682.700000    0.074528
 682.800000    0.076320
 682.900000    0.078089
 683.000000    0.079858
 683.100000    0.081633
 683.200000    0.083408
 683.300000    0.085159
 683.400000    0.086910
 683.500000    0.088683
 683.600000    0.090456
 683.700000    0.092205
 683.800000    0.093954
 683.900000    0.095726
 684.000000    0.097497
 684.100000    0.099236
 684.200000    0.100973
 684.300000    0.102734
 684.400000    0.104493
 684.500000    0.106228
 684.600000    0.107962
 684.700000    0.109718
 684.800000    0.111473
 684.900000    0.113204
 685.000000    0.114934
 685.100000    0.116699
 685.200000    0.118463
 685.300000    0.120203
 685.400000    0.121942
 685.500000    0.123704
 685.600000    0.125334
 685.700000    0.126936
 685.800000    0.128533
 685.900000    0.130150
 686.000000    0.131762
 686.100000    0.132222
 686.200000    0.132647
 686.300000    0.133016
 686.400000    0.133351
 686.500000    0.133674
 686.600000    0.131922
 686.700000    0.130065
 686.800000    0.128124
 686.900000    0.126120
 687.000000    0.124031
 687.100000    0.123748
 687.200000    0.123425
 687.300000    0.123082
 687.400000    0.122698
 687.500000    0.122256
 687.600000    0.125681
 687.700000    0.129169
 687.800000    0.132702
 687.900000    0.136262
 688.000000    0.139867
 688.100000    0.143149
 688.200000    0.146469
 688.300000    0.149806
 688.400000    0.153180
 688.500000    0.156612
 688.600000    0.157653
 688.700000    0.158663
 688.800000    0.159662
 688.900000    0.160670
 689.000000    0.161669
 689.100000    0.163180
 689.200000    0.164691
 689.300000    0.166223
 689.400000    0.167754
 689.500000    0.169265
 689.600000    0.171556
 689.700000    0.173881
 689.800000    0.176220
 689.900000    0.178552
 690.000000    0.180899
 690.100000    0.183142
 690.200000    0.185396
 690.300000    0.187642
 690.400000    0.189899
 690.500000    0.192189
 690.600000    0.194580
 690.700000    0.196963
 690.800000    0.199359
 690.900000    0.201789
 691.000000    0.204233
 691.100000    0.206468
 691.200000    0.208712
 691.300000    0.210944
 691.400000    0.213185
 691.500000    0.215457
 691.600000    0.217689
 691.700000    0.219908
 691.800000    0.222136
 691.900000    0.224394
 692.000000    0.226661
 692.100000    0.228840
 692.200000    0.231027
 692.300000    0.233243
 692.400000    0.235466
 692.500000    0.237675
 692.600000    0.239787
 692.700000    0.241927
 692.800000    0.244073
 692.900000    0.246203
 693.000000    0.248338
 693.100000    0.250216
 693.200000    0.252097
 693.300000    0.253957
 693.400000    0.255819
 693.500000    0.257706
 693.600000    0.259428
 693.700000    0.261128
 693.800000    0.262828
 693.900000    0.264550
 694.000000    0.266272
 694.100000    0.268041
 694.200000    0.269810
 694.300000    0.271603
 694.400000    0.273397
 694.500000    0.275169
 694.600000    0.277119
 694.700000    0.279095
 694.800000    0.281075
 694.900000    0.283034
 695.000000    0.284996
 695.100000    0.286843
 695.200000    0.288690
 695.300000    0.290516
 695.400000    0.292344
 695.500000    0.294195
 695.600000    0.295922
 695.700000    0.297626
 695.800000    0.299330
 695.900000    0.301056
 696.000000    0.302782
 696.100000    0.304874
 696.200000    0.306970
 696.300000    0.309046
 696.400000    0.311127
 696.500000    0.313234
 696.600000    0.315411
 696.700000    0.317571
 696.800000    0.319734
 696.900000    0.321926
 697.000000    0.324122
 697.100000    0.325918
 697.200000    0.327715
 697.300000    0.329535
 697.400000    0.331356
 697.500000    0.333155
 697.600000    0.334814
 697.700000    0.336495
 697.800000    0.338175
 697.900000    0.339831
 698.000000    0.341487
 698.100000    0.343034
 698.200000    0.344580
 698.300000    0.346100
 698.400000    0.347618
 698.500000    0.349156
 698.600000    0.350545
 698.700000    0.351908
 698.800000    0.353266
 698.900000    0.354644
 699.000000    0.356018
 699.100000    0.357719
 699.200000    0.359420
 699.300000    0.361144
 699.400000    0.362867
 699.500000    0.364567
 699.600000    0.366422
 699.700000    0.368301
 699.800000    0.370181
 699.900000    0.372039
 700.000000    0.373899
 700.100000    0.375678
 700.200000    0.377458
 700.300000    0.379214
 700.400000    0.380971
 700.500000    0.382751
 700.600000    0.384532
 700.700000    0.386289
 700.800000    0.388047
 700.900000    0.389828
 701.000000    0.391610
 701.100000    0.393337
 701.200000    0.395063
 701.300000    0.396766
 701.400000    0.398469
 701.500000    0.400194
 701.600000    0.402005
 701.700000    0.403585
 701.800000    0.405166
 701.900000    0.406078
 702.000000    0.406991
 702.100000    0.407859
 702.200000    0.408726
 702.300000    0.409593
 702.400000    0.410461
 702.500000    0.411328
 702.600000    0.412369
 702.700000    0.413388
 702.800000    0.414407
 702.900000    0.415450
 703.000000    0.416494
 703.100000    0.417761
 703.200000    0.419030
 703.300000    0.420300
 703.400000    0.421572
 703.500000    0.422823
 703.600000    0.423720
 703.700000    0.424641
 703.800000    0.425562
 703.900000    0.426483
 704.000000    0.427404
 704.100000    0.428257
 704.200000    0.429109
 704.300000    0.429961
 704.400000    0.430812
 704.500000    0.431641
 704.600000    0.432469
 704.700000    0.433321
 704.800000    0.434172
 704.900000    0.435023
 705.000000    0.435874
 705.100000    0.436790
 705.200000    0.437707
 705.300000    0.437950
 705.400000    0.438193
 705.500000    0.438227
 705.600000    0.438354
 705.700000    0.438480
 705.800000    0.438606
 705.900000    0.438732
 706.000000    0.438858
 706.100000    0.438926
 706.200000    0.438993
 706.300000    0.439060
 706.400000    0.439127
 706.500000    0.439194
 706.600000    0.439261
 706.700000    0.439329
 706.800000    0.439396
 706.900000    0.439463
 707.000000    0.439530
 707.100000    0.439553
 707.200000    0.439577
 707.300000    0.439600
 707.400000    0.439624
 707.500000    0.439647
 707.600000    0.439670
 707.700000    0.439694
 707.800000    0.439717
 707.900000    0.439741
 708.000000    0.439764
 708.100000    0.439844
 708.200000    0.439924
 708.300000    0.440004
 708.400000    0.440084
 708.500000    0.440164
 708.600000    0.440244
 708.700000    0.440324
 708.800000    0.440403
 708.900000    0.440483
 709.000000    0.440563
 709.100000    0.440604
 709.200000    0.440645
 709.300000    0.440686
 709.400000    0.440727
 709.500000    0.440768
 709.600000    0.440809
 709.700000    0.440850
 709.800000    0.440891
 709.900000    0.440932
 710.000000    0.440972
 710.100000    0.440999
 710.200000    0.441026
 710.300000    0.441053
 710.400000    0.441080
 710.500000    0.441106
 710.600000    0.441133
 710.700000    0.441160
 710.800000    0.441187
 710.900000    0.441213
 711.000000    0.441240
 711.100000    0.441345
 711.200000    0.441449
 711.300000    0.441553
 711.400000    0.441658
 711.500000    0.441762
 711.600000    0.441867
 711.700000    0.441971
 711.800000    0.442076
 711.900000    0.442180
 712.000000    0.442284
 712.100000    0.442195
 712.200000    0.442106
 712.300000    0.442016
 712.400000    0.441927
 712.500000    0.441837
 712.600000    0.441840
 712.700000    0.441843
 712.800000    0.441845
 712.900000    0.441848
 713.000000    0.441850
 713.100000    0.441845
 713.200000    0.441841
 713.300000    0.441836
 713.400000    0.441831
 713.500000    0.441826
 713.600000    0.441822
 713.700000    0.441818
 713.800000    0.441815
 713.900000    0.441811
 714.000000    0.441807
 714.100000    0.441751
 714.200000    0.441695
 714.300000    0.441639
 714.400000    0.441581
 714.500000    0.441523
 714.600000    0.441464
 714.700000    0.441405
 714.800000    0.441344
 714.900000    0.441282
 715.000000    0.441220
 715.100000    0.441156
 715.200000    0.441091
 715.300000    0.441026
 715.400000    0.440959
 715.500000    0.440892
 715.600000    0.440732
 715.700000    0.440570
 715.800000    0.440409
 715.900000    0.440247
 716.000000    0.440084
 716.100000    0.439229
 716.200000    0.438374
 716.300000    0.437519
 716.400000    0.436664
 716.500000    0.435809
 716.600000    0.433943
 716.700000    0.432078
 716.800000    0.430212
 716.900000    0.428346
 717.000000    0.426481
 717.100000    0.424768
 717.200000    0.423055
 717.300000    0.421341
 717.400000    0.419627
 717.500000    0.417913
 717.600000    0.417211
 717.700000    0.416509
 717.800000    0.415807
 717.900000    0.415104
 718.000000    0.414402
 718.100000    0.413077
 718.200000    0.411752
 718.300000    0.410427
 718.400000    0.409103
 718.500000    0.407779
 718.600000    0.406915
 718.700000    0.406052
 718.800000    0.405189
 718.900000    0.404326
 719.000000    0.403463
 719.100000    0.403566
 719.200000    0.403669
 719.300000    0.403771
 719.400000    0.403874
 719.500000    0.403976
 719.600000    0.404262
 719.700000    0.404548
 719.800000    0.404833
 719.900000    0.405118
 720.000000    0.405403
 720.100000    0.406352
 720.200000    0.407300
 720.300000    0.408249
 720.400000    0.409198
 720.500000    0.410147
 720.600000    0.412477
 720.700000    0.414807
 720.800000    0.417138
 720.900000    0.419469
 721.000000    0.421801
 721.100000    0.423998
 721.200000    0.426194
 721.300000    0.428391
 721.400000    0.430588
 721.500000    0.432785
 721.600000    0.433510
 721.700000    0.434235
 721.800000    0.434960
 721.900000    0.435685
 722.000000    0.436410
 722.100000    0.436254
 722.200000    0.436097
 722.300000    0.435940
 722.400000    0.435783
 722.500000    0.435626
 722.600000    0.434178
 722.700000    0.432730
 722.800000    0.431281
 722.900000    0.429832
 723.000000    0.428382
 723.100000    0.426122
 723.200000    0.423862
 723.300000    0.421603
 723.400000    0.419344
 723.500000    0.417086
 723.600000    0.416760
 723.700000    0.416435
 723.800000    0.416110
 723.900000    0.415784
 724.000000    0.415459
 724.100000    0.415670
 724.200000    0.415881
 724.300000    0.416094
 724.400000    0.416307
 724.500000    0.416521
 724.600000    0.416920
 724.700000    0.417321
 724.800000    0.417723
 724.900000    0.418126
 725.000000    0.418530
 725.100000    0.418889
 725.200000    0.419249
 725.300000    0.419610
 725.400000    0.419972
 725.500000    0.420334
 725.600000    0.421065
 725.700000    0.421797
 725.800000    0.422530
 725.900000    0.423263
 726.000000    0.423997
 726.100000    0.424045
 726.200000    0.424094
 726.300000    0.424143
 726.400000    0.424191
 726.500000    0.424240
 726.600000    0.424195
 726.700000    0.424151
 726.800000    0.424106
 726.900000    0.424062
 727.000000    0.424017
 727.100000    0.423229
 727.200000    0.422440
 727.300000    0.421651
 727.400000    0.420862
 727.500000    0.420073
 727.600000    0.420021
 727.700000    0.419970
 727.800000    0.419918
 727.900000    0.419867
 728.000000    0.419815
 728.100000    0.421282
 728.200000    0.422749
 728.300000    0.424217
 728.400000    0.425684
 728.500000    0.427150
 728.600000    0.426956
 728.700000    0.426762
 728.800000    0.426567
 728.900000    0.426372
 729.000000    0.426178
 729.100000    0.426520
 729.200000    0.426862
 729.300000    0.427206
 729.400000    0.427549
 729.500000    0.427894
 729.600000    0.428609
 729.700000    0.429325
 729.800000    0.430041
 729.900000    0.430759
 730.000000    0.431478
 730.100000    0.431168
 730.200000    0.430858
 730.300000    0.430550
 730.400000    0.430243
 730.500000    0.429937
 730.600000    0.429909
 730.700000    0.429882
 730.800000    0.429857
 730.900000    0.429832
 731.000000    0.429808
 731.100000    0.430146
 731.200000    0.430485
 731.300000    0.430823
 731.400000    0.431162
 731.500000    0.431501
 731.600000    0.432209
 731.700000    0.432917
 731.800000    0.433625
 731.900000    0.434333
 732.000000    0.435041
 732.100000    0.436073
 732.200000    0.437105
 732.300000    0.438137
 732.400000    0.439168
 732.500000    0.440199
 732.600000    0.440674
 732.700000    0.441149
 732.800000    0.441624
 732.900000    0.442098
 733.000000    0.442573
 733.100000    0.442582
 733.200000    0.442591
 733.300000    0.442600
 733.400000    0.442610
 733.500000    0.442620
 733.600000    0.442908
 733.700000    0.443198
 733.800000    0.443488
 733.900000    0.443778
 734.000000    0.444068
 734.100000    0.444219
 734.200000    0.444369
 734.300000    0.444519
 734.400000    0.444669
 734.500000    0.444817
 734.600000    0.444780
 734.700000    0.444742
 734.800000    0.444703
 734.900000    0.444663
 735.000000    0.444621
 735.100000    0.444714
 735.200000    0.444805
 735.300000    0.444895
 735.400000    0.444983
 735.500000    0.445070
 735.600000    0.444971
 735.700000    0.444871
 735.800000    0.444770
 735.900000    0.444668
 736.000000    0.444565
 736.100000    0.444515
 736.200000    0.444464
 736.300000    0.444413
 736.400000    0.444362
 736.500000    0.444312
 736.600000    0.444447
 736.700000    0.444583
 736.800000    0.444719
 736.900000    0.444855
 737.000000    0.444990
 737.100000    0.445266
 737.200000    0.445541
 737.300000    0.445816
 737.400000    0.446092
 737.500000    0.446367
 737.600000    0.446549
 737.700000    0.446732
 737.800000    0.446915
 737.900000    0.447097
 738.000000    0.447280
 738.100000    0.447282
 738.200000    0.447284
 738.300000    0.447286
 738.400000    0.447289
 738.500000    0.447291
 738.600000    0.447386
 738.700000    0.447480
 738.800000    0.447575
 738.900000    0.447670
 739.000000    0.447765
 739.100000    0.447805
 739.200000    0.447845
 739.300000    0.447885
 739.400000    0.447924
 739.500000    0.447964
 739.600000    0.448097
 739.700000    0.448229
 739.800000    0.448362
 739.900000    0.448495
 740.000000    0.448627
 740.100000    0.448723
 740.200000    0.448818
 740.300000    0.448914
 740.400000    0.449009
 740.500000    0.449104
 740.600000    0.449200
 740.700000    0.449295
 740.800000    0.449391
 740.900000    0.449486
 741.000000    0.449581
 741.100000    0.449574
 741.200000    0.449566
 741.300000    0.449558
 741.400000    0.449550
 741.500000    0.449543
 741.600000    0.449628
 741.700000    0.449713
 741.800000    0.449798
 741.900000    0.449883
 742.000000    0.449968
 742.100000    0.449945
 742.200000    0.449922
 742.300000    0.449900
 742.400000    0.449877
 742.500000    0.449854
 742.600000    0.449831
 742.700000    0.449808
 742.800000    0.449785
 742.900000    0.449763
 743.000000    0.449740
 743.100000    0.449883
 743.200000    0.450025
 743.300000    0.450168
 743.400000    0.450311
 743.500000    0.450454
 743.600000    0.450505
 743.700000    0.450555
 743.800000    0.450605
 743.900000    0.450655
 744.000000    0.450705
 744.100000    0.450701
 744.200000    0.450696
 744.300000    0.450691
 744.400000    0.450687
 744.500000    0.450682
 744.600000    0.450677
 744.700000    0.450673
 744.800000    0.450668
 744.900000    0.450663
 745.000000    0.450659
 745.100000    0.450653
 745.200000    0.450646
 745.300000    0.450640
 745.400000    0.450634
 745.500000    0.450628
 745.600000    0.450622
 745.700000    0.450616
 745.800000    0.450610
 745.900000    0.450604
 746.000000    0.450598
 746.100000    0.450577
 746.200000    0.450556
 746.300000    0.450535
 746.400000    0.450514
 746.500000    0.450493
 746.600000    0.450472
 746.700000    0.450451
 746.800000    0.450430
 746.900000    0.450409
 747.000000    0.450388
 747.100000    0.450495
 747.200000    0.450602
 747.300000    0.450708
 747.400000    0.450815
 747.500000    0.450921
 747.600000    0.450935
 747.700000    0.450949
 747.800000    0.450963
 747.900000    0.450977
 748.000000    0.450990
 748.100000    0.451006
 748.200000    0.451021
 748.300000    0.451036
 748.400000    0.451051
 748.500000    0.451066
 748.600000    0.451082
 748.700000    0.451097
 748.800000    0.451112
 748.900000    0.451127
 749.000000    0.451142
 749.100000    0.451149
 749.200000    0.451156
 749.300000    0.451163
 749.400000    0.451170
 749.500000    0.451177
 749.600000    0.451184
 749.700000    0.451191
 749.800000    0.451197
 749.900000    0.451204
 750.000000    0.451211
 750.100000    0.451200
 750.200000    0.451188
 750.300000    0.451177
 750.400000    0.451165
 750.500000    0.451154
 750.600000    0.451235
 750.700000    0.451316
 750.800000    0.451398
 750.900000    0.451479
 751.000000    0.451560
 751.100000    0.451557
 751.200000    0.451553
 751.300000    0.451550
 751.400000    0.451546
 751.500000    0.451543
 751.600000    0.451539
 751.700000    0.451536
 751.800000    0.451532
 751.900000    0.451529
 752.000000    0.451525
 752.100000    0.451516
 752.200000    0.451506
 752.300000    0.451497
 752.400000    0.451487
 752.500000    0.451478
 752.600000    0.451468
 752.700000    0.451459
 752.800000    0.451449
 752.900000    0.451440
 753.000000    0.451430
 753.100000    0.451497
 753.200000    0.451565
 753.300000    0.451632
 753.400000    0.451699
 753.500000    0.451766
 753.600000    0.451740
 753.700000    0.451714
 753.800000    0.451687
 753.900000    0.451660
 754.000000    0.451634
 754.100000    0.451604
 754.200000    0.451574
 754.300000    0.451545
 754.400000    0.451517
 754.500000    0.451489
 754.600000    0.451462
 754.700000    0.451436
 754.800000    0.451411
 754.900000    0.451387
 755.000000    0.451364
 755.100000    0.451331
 755.200000    0.451300
 755.300000    0.451269
 755.400000    0.451239
 755.500000    0.451211
 755.600000    0.451183
 755.700000    0.451156
 755.800000    0.451129
 755.900000    0.451103
 756.000000    0.451078
 756.100000    0.451097
 756.200000    0.451117
 756.300000    0.451137
 756.400000    0.451156
 756.500000    0.451175
 756.600000    0.451287
 756.700000    0.451398
 756.800000    0.451509
 756.900000    0.451620
 757.000000    0.451732
 757.100000    0.451736
 757.200000    0.451740
 757.300000    0.451744
 757.400000    0.451748
 757.500000    0.451752
 757.600000    0.451756
 757.700000    0.451760
 757.800000    0.451764
 757.900000    0.451768
 758.000000    0.451772
 758.100000    0.451451
 758.200000    0.451130
 758.300000    0.450808
 758.400000    0.450487
 758.500000    0.450165
 758.600000    0.446042
 758.700000    0.441919
 758.800000    0.437794
 758.900000    0.433669
 759.000000    0.429542
 759.100000    0.412840
 759.200000    0.396137
 759.300000    0.379434
 759.400000    0.362730
 759.500000    0.346027
 759.600000    0.321624
 759.700000    0.297221
 759.800000    0.272818
 759.900000    0.248416
 760.000000    0.224014
 760.100000    0.211027
 760.200000    0.198039
 760.300000    0.185051
 760.400000    0.172064
 760.500000    0.159076
 760.600000    0.160465
 760.700000    0.161853
 760.800000    0.163242
 760.900000    0.164630
 761.000000    0.166018
 761.100000    0.179171
 761.200000    0.192322
 761.300000    0.205471
 761.400000    0.218617
 761.500000    0.231761
 761.600000    0.245551
 761.700000    0.259339
 761.800000    0.273125
 761.900000    0.286908
 762.000000    0.300688
 762.100000    0.298741
 762.200000    0.296794
 762.300000    0.294846
 762.400000    0.292899
 762.500000    0.290952
 762.600000    0.283538
 762.700000    0.276124
 762.800000    0.268710
 762.900000    0.261296
 763.000000    0.253882
 763.100000    0.253959
 763.200000    0.254035
 763.300000    0.254112
 763.400000    0.254189
 763.500000    0.254266
 763.600000    0.258418
 763.700000    0.262569
 763.800000    0.266721
 763.900000    0.270871
 764.000000    0.275021
 764.100000    0.280006
 764.200000    0.284990
 764.300000    0.289974
 764.400000    0.294957
 764.500000    0.299940
 764.600000    0.305848
 764.700000    0.311755
 764.800000    0.317661
 764.900000    0.323567
 765.000000    0.329472
 765.100000    0.334753
 765.200000    0.340033
 765.300000    0.345313
 765.400000    0.350594
 765.500000    0.355875
 765.600000    0.360045
 765.700000    0.364215
 765.800000    0.368386
 765.900000    0.372557
 766.000000    0.376727
 766.100000    0.380286
 766.200000    0.383845
 766.300000    0.387402
 766.400000    0.390958
 766.500000    0.394514
 766.600000    0.398253
 766.700000    0.401992
 766.800000    0.405729
 766.900000    0.409465
 767.000000    0.413201
 767.100000    0.415672
 767.200000    0.418144
 767.300000    0.420615
 767.400000    0.423086
 767.500000    0.425557
 767.600000    0.426918
 767.700000    0.428279
 767.800000    0.429640
 767.900000    0.431001
 768.000000    0.432362
 768.100000    0.433300
 768.200000    0.434238
 768.300000    0.435175
 768.400000    0.436113
 768.500000    0.437051
 768.600000    0.437711
 768.700000    0.438370
 768.800000    0.439030
 768.900000    0.439689
 769.000000    0.440349
 769.100000    0.440863
 769.200000    0.441377
 769.300000    0.441893
 769.400000    0.442408
 769.500000    0.442925
 769.600000    0.443628
 769.700000    0.444331
 769.800000    0.445036
 769.900000    0.445742
 770.000000    0.446449
 770.100000    0.446890
 770.200000    0.447332
 770.300000    0.447776
 770.400000    0.448220
 770.500000    0.448666
 770.600000    0.448836
 770.700000    0.449008
 770.800000    0.449180
 770.900000    0.449353
 771.000000    0.449526
 771.100000    0.449627
 771.200000    0.449728
 771.300000    0.449829
 771.400000    0.449930
 771.500000    0.450030
 771.600000    0.450037
 771.700000    0.450043
 771.800000    0.450049
 771.900000    0.450054
 772.000000    0.450060
 772.100000    0.450093
 772.200000    0.450127
 772.300000    0.450160
 772.400000    0.450192
 772.500000    0.450225
 772.600000    0.450257
 772.700000    0.450288
 772.800000    0.450320
 772.900000    0.450351
 773.000000    0.450383
 773.100000    0.450460
 773.200000    0.450538
 773.300000    0.450616
 773.400000    0.450694
 773.500000    0.450772
 773.600000    0.450758
 773.700000    0.450745
 773.800000    0.450732
 773.900000    0.450719
 774.000000    0.450705
 774.100000    0.450705
 774.200000    0.450704
 774.300000    0.450702
 774.400000    0.450700
 774.500000    0.450697
 774.600000    0.450693
 774.700000    0.450689
 774.800000    0.450683
 774.900000    0.450677
 775.000000    0.450669
 775.100000    0.450646
 775.200000    0.450622
 775.300000    0.450598
 775.400000    0.450572
 775.500000    0.450545
 775.600000    0.450518
 775.700000    0.450490
 775.800000    0.450461
 775.900000    0.450432
 776.000000    0.450402
 776.100000    0.450381
 776.200000    0.450359
 776.300000    0.450337
 776.400000    0.450316
 776.500000    0.450295
 776.600000    0.450274
 776.700000    0.450254
 776.800000    0.450233
 776.900000    0.450213
 777.000000    0.450192
 777.100000    0.450159
 777.200000    0.450126
 777.300000    0.450093
 777.400000    0.450060
 777.500000    0.450027
 777.600000    0.449994
 777.700000    0.449961
 777.800000    0.449927
 777.900000    0.449894
 778.000000    0.449861
 778.100000    0.449835
 778.200000    0.449810
 778.300000    0.449784
 778.400000    0.449758
 778.500000    0.449732
 778.600000    0.449706
 778.700000    0.449680
 778.800000    0.449654
 778.900000    0.449628
 779.000000    0.449602
 779.100000    0.449680
 779.200000    0.449758
 779.300000    0.449835
 779.400000    0.449913
 779.500000    0.449991
 779.600000    0.449976
 779.700000    0.449962
 779.800000    0.449947
 779.900000    0.449933
 780.000000    0.449918
 780.100000    0.449853
 780.200000    0.449789
 780.300000    0.449724
 780.400000    0.449659
 780.500000    0.449594
 780.600000    0.449529
 780.700000    0.449465
 780.800000    0.449400
 780.900000    0.449335
 781.000000    0.449270
 781.100000    0.449274
 781.200000    0.449278
 781.300000    0.449281
 781.400000    0.449285
 781.500000    0.449289
 781.600000    0.449292
 781.700000    0.449296
 781.800000    0.449300
 781.900000    0.449303
 782.000000    0.449307
 782.100000    0.449277
 782.200000    0.449247
 782.300000    0.449217
 782.400000    0.449187
 782.500000    0.449158
 782.600000    0.449128
 782.700000    0.449098
 782.800000    0.449068
 782.900000    0.449038
 783.000000    0.449008
 783.100000    0.448979
 783.200000    0.448950
 783.300000    0.448921
 783.400000    0.448892
 783.500000    0.448863
 783.600000    0.448834
 783.700000    0.448804
 783.800000    0.448775
 783.900000    0.448746
 784.000000    0.448717
 784.100000    0.448672
 784.200000    0.448626
 784.300000    0.448581
 784.400000    0.448536
 784.500000    0.448490
 784.600000    0.448445
 784.700000    0.448400
 784.800000    0.448354
 784.900000    0.448309
 785.000000    0.448264
 785.100000    0.448263
 785.200000    0.448263
 785.300000    0.448262
 785.400000    0.448262
 785.500000    0.448262
 785.600000    0.448261
 785.700000    0.448261
 785.800000    0.448261
 785.900000    0.448260
 786.000000    0.448260
 786.100000    0.448131
 786.200000    0.448002
 786.300000    0.447873
 786.400000    0.447744
 786.500000    0.447615
 786.600000    0.447578
 786.700000    0.447541
 786.800000    0.447504
 786.900000    0.447467
 787.000000    0.447430
 787.100000    0.447325
 787.200000    0.447220
 787.300000    0.447115
 787.400000    0.447010
 787.500000    0.446905
 787.600000    0.446891
 787.700000    0.446878
 787.800000    0.446865
 787.900000    0.446852
 788.000000    0.446838
 788.100000    0.446702
 788.200000    0.446566
 788.300000    0.446430
 788.400000    0.446294
 788.500000    0.446158
 788.600000    0.445930
 788.700000    0.445703
 788.800000    0.445475
 788.900000    0.445248
 789.000000    0.445020
 789.100000    0.444790
 789.200000    0.444560
 789.300000    0.444330
 789.400000    0.444100
 789.500000    0.443870
 789.600000    0.443824
 789.700000    0.443777
 789.800000    0.443730
 789.900000    0.443683
 790.000000    0.443636
 790.100000    0.443583
 790.200000    0.443529
 790.300000    0.443475
 790.400000    0.443422
 790.500000    0.443368
 790.600000    0.443315
 790.700000    0.443261
 790.800000    0.443207
 790.900000    0.443154
 791.000000    0.443100
 791.100000    0.443276
 791.200000    0.443453
 791.300000    0.443629
 791.400000    0.443805
 791.500000    0.443982
 791.600000    0.443975
 791.700000    0.443969
 791.800000    0.443962
 791.900000    0.443956
 792.000000    0.443950
 792.100000    0.443804
 792.200000    0.443659
 792.300000    0.443514
 792.400000    0.443368
 792.500000    0.443223
 792.600000    0.443260
 792.700000    0.443298
 792.800000    0.443335
 792.900000    0.443372
 793.000000    0.443409
 793.100000    0.443672
 793.200000    0.443934
 793.300000    0.444196
 793.400000    0.444458
 793.500000    0.444721
 793.600000    0.444983
 793.700000    0.445245
 793.800000    0.445507
 793.900000    0.445769
 794.000000    0.446031
 794.100000    0.445990
 794.200000    0.445949
 794.300000    0.445908
 794.400000    0.445867
 794.500000    0.445826
 794.600000    0.445694
 794.700000    0.445561
 794.800000    0.445429
 794.900000    0.445297
 795.000000    0.445165
 795.100000    0.444950
 795.200000    0.444734
 795.300000    0.444519
 795.400000    0.444304
 795.500000    0.444089
 795.600000    0.443600
 795.700000    0.443112
 795.800000    0.442624
 795.900000    0.442135
 796.000000    0.441647
 796.100000    0.441394
 796.200000    0.441141
 796.300000    0.440888
 796.400000    0.440635
 796.500000    0.440383
 796.600000    0.440676
 796.700000    0.440969
 796.800000    0.441262
 796.900000    0.441554
 797.000000    0.441847
 797.100000    0.442082
 797.200000    0.442318
 797.300000    0.442553
 797.400000    0.442788
 797.500000    0.443024
 797.600000    0.443077
 797.700000    0.443130
 797.800000    0.443184
 797.900000    0.443237
 798.000000    0.443290
 798.100000    0.443286
 798.200000    0.443281
 798.300000    0.443277
 798.400000    0.443272
 798.500000    0.443268
 798.600000    0.443263
 798.700000    0.443259
 798.800000    0.443254
 798.900000    0.443250
 799.000000    0.443245
 799.100000    0.443220
 799.200000    0.443194
 799.300000    0.443169
 799.400000    0.443143
 799.500000    0.443118
 799.600000    0.442911
 799.700000    0.442703
 799.800000    0.442496
 799.900000    0.442289
 800.000000    0.442082
 800.100000    0.441835
 800.200000    0.441588
 800.300000    0.441341
 800.400000    0.441094
 800.500000    0.440847
 800.600000    0.440782
 800.700000    0.440717
 800.800000    0.440651
 800.900000    0.440586
 801.000000    0.440520
 801.100000    0.440518
 801.200000    0.440516
 801.300000    0.440514
 801.400000    0.440512
 801.500000    0.440510
 801.600000    0.440599
 801.700000    0.440688
 801.800000    0.440776
 801.900000    0.440865
 802.000000    0.440954
 802.100000    0.440935
 802.200000    0.440917
 802.300000    0.440898
 802.400000    0.440880
 802.500000    0.440861
 802.600000    0.440843
 802.700000    0.440825
 802.800000    0.440806
 802.900000    0.440788
 803.000000    0.440769
 803.100000    0.440872
 803.200000    0.440975
 803.300000    0.441079
 803.400000    0.441182
 803.500000    0.441285
 803.600000    0.441297
 803.700000    0.441099
 803.800000    0.440902
 803.900000    0.440026
 804.000000    0.439150
 804.100000    0.438221
 804.200000    0.437292
 804.300000    0.436363
 804.400000    0.435435
 804.500000    0.434529
 804.600000    0.433803
 804.700000    0.433052
 804.800000    0.432300
 804.900000    0.431548
 805.000000    0.430796
 805.100000    0.430073
 805.200000    0.429350
 805.300000    0.428626
 805.400000    0.427901
 805.500000    0.427199
 805.600000    0.426322
 805.700000    0.425422
 805.800000    0.424521
 805.900000    0.423621
 806.000000    0.422720
 806.100000    0.421814
 806.200000    0.420909
 806.300000    0.420026
 806.400000    0.419144
 806.500000    0.418238
 806.600000    0.417332
 806.700000    0.416427
 806.800000    0.415521
 806.900000    0.414616
 807.000000    0.413710
 807.100000    0.412798
 807.200000    0.411886
 807.300000    0.410294
 807.400000    0.408703
 807.500000    0.406878
 807.600000    0.405053
 807.700000    0.403252
 807.800000    0.401452
 807.900000    0.399628
 808.000000    0.397805
 808.100000    0.395916
 808.200000    0.394028
 808.300000    0.392165
 808.400000    0.390302
 808.500000    0.388417
 808.600000    0.386533
 808.700000    0.384673
 808.800000    0.382815
 808.900000    0.380934
 809.000000    0.379054
 809.100000    0.377241
 809.200000    0.375428
 809.300000    0.373593
 809.400000    0.371758
 809.500000    0.369948
 809.600000    0.368213
 809.700000    0.366455
 809.800000    0.364697
 809.900000    0.362962
 810.000000    0.361226
 810.100000    0.359458
 810.200000    0.357689
 810.300000    0.355943
 810.400000    0.354198
 810.500000    0.352429
 810.600000    0.350516
 810.700000    0.348628
 810.800000    0.346742
 810.900000    0.344833
 811.000000    0.342926
 811.100000    0.340935
 811.200000    0.338946
 811.300000    0.336937
 811.400000    0.334930
 811.500000    0.332949
 811.600000    0.331039
 811.700000    0.329107
 811.800000    0.327178
 811.900000    0.325273
 812.000000    0.323370
 812.100000    0.321557
 812.200000    0.319744
 812.300000    0.317955
 812.400000    0.316167
 812.500000    0.314356
 812.600000    0.312093
 812.700000    0.309858
 812.800000    0.307629
 812.900000    0.305383
 813.000000    0.303143
 813.100000    0.300441
 813.200000    0.297751
 813.300000    0.295095
 813.400000    0.292449
 813.500000    0.289792
 813.600000    0.287696
 813.700000    0.285626
 813.800000    0.283561
 813.900000    0.281478
 814.000000    0.279400
 814.100000    0.277552
 814.200000    0.275706
 814.300000    0.273840
 814.400000    0.271975
 814.500000    0.270136
 814.600000    0.267896
 814.700000    0.265640
 814.800000    0.263392
 814.900000    0.261173
 815.000000    0.258961
 815.100000    0.256652
 815.200000    0.254351
 815.300000    0.252080
 815.400000    0.249817
 815.500000    0.247541
 815.600000    0.245326
 815.700000    0.243141
 815.800000    0.240964
 815.900000    0.238772
 816.000000    0.236587
 816.100000    0.234637
 816.200000    0.232690
 816.300000    0.230727
 816.400000    0.228769
 816.500000    0.226836
 816.600000    0.225912
 816.700000    0.224956
 816.800000    0.223990
 816.900000    0.223035
 817.000000    0.222071
 817.100000    0.220423
 817.200000    0.218775
 817.300000    0.217149
 817.400000    0.215523
 817.500000    0.213875
 817.600000    0.211388
 817.700000    0.208937
 817.800000    0.206498
 817.900000    0.204050
 818.000000    0.201616
 818.100000    0.200608
 818.200000    0.199591
 818.300000    0.198585
 818.400000    0.197569
 818.500000    0.196521
 818.600000    0.195335
 818.700000    0.194162
 818.800000    0.192982
 818.900000    0.191772
 819.000000    0.190555
 819.100000    0.188949
 819.200000    0.187342
 819.300000    0.185713
 819.400000    0.184083
 819.500000    0.182475
 819.600000    0.180826
 819.700000    0.179156
 819.800000    0.177485
 819.900000    0.175837
 820.000000    0.174188
 820.100000    0.173424
 820.200000    0.172642
 820.300000    0.171865
 820.400000    0.171071
 820.500000    0.170237
 820.600000    0.169172
 820.700000    0.168115
 820.800000    0.167046
 820.900000    0.165942
 821.000000    0.164824
 821.100000    0.163026
 821.200000    0.161229
 821.300000    0.159411
 821.400000    0.157595
 821.500000    0.155804
 821.600000    0.153725
 821.700000    0.151631
 821.800000    0.149546
 821.900000    0.147491
 822.000000    0.145444
 822.100000    0.142522
 822.200000    0.139629
 822.300000    0.136786
 822.400000    0.133971
 822.500000    0.131163
 822.600000    0.128013
 822.700000    0.124923
 822.800000    0.121869
 822.900000    0.118833
 823.000000    0.115834
 823.100000    0.114888
 823.200000    0.113925
 823.300000    0.112966
 823.400000    0.111990
 823.500000    0.110978
 823.600000    0.110670
 823.700000    0.110346
 823.800000    0.109985
 823.900000    0.109565
 824.000000    0.109107
 824.100000    0.107902
 824.200000    0.106682
 824.300000    0.105426
 824.400000    0.104155
 824.500000    0.102892
 824.600000    0.101296
 824.700000    0.099673
 824.800000    0.098047
 824.900000    0.096440
 825.000000    0.094829
 825.100000    0.093003
 825.200000    0.091180
 825.300000    0.089384
 825.400000    0.087590
 825.500000    0.085778
 825.600000    0.083968
 825.700000    0.082185
 825.800000    0.080405
 825.900000    0.078606
 826.000000    0.076810
 826.100000    0.075303
 826.200000    0.073787
 826.300000    0.072240
 826.400000    0.070684
 826.500000    0.069142
 826.600000    0.067480
 826.700000    0.065791
 826.800000    0.064100
 826.900000    0.062430
 827.000000    0.060756
 827.100000    0.058710
 827.200000    0.056682
 827.300000    0.054695
 827.400000    0.052725
 827.500000    0.050750
 827.600000    0.048897
 827.700000    0.047077
 827.800000    0.045268
 827.900000    0.043447
 828.000000    0.041636
 828.100000    0.040881
 828.200000    0.040123
 828.300000    0.039362
 828.400000    0.038597
 828.500000    0.037852
 828.600000    0.037031
 828.700000    0.036188
 828.800000    0.035345
 828.900000    0.034501
 829.000000    0.033658
 829.100000    0.032836
 829.200000    0.032013
 829.300000    0.031211
 829.400000    0.030408
 829.500000    0.029581
 829.600000    0.028790
 829.700000    0.027995
 829.800000    0.027196
 829.900000    0.026394
 830.000000    0.025589
 830.100000    0.024766
 830.200000    0.023943
 830.300000    0.023096
 830.400000    0.022248
 830.500000    0.021399
 830.600000    0.020580
 830.700000    0.019757
 830.800000    0.018930
 830.900000    0.018123
 831.000000    0.017312
 831.100000    0.016440
 831.200000    0.015567
 831.300000    0.014696
 831.400000    0.013824
 831.500000    0.012952
 831.600000    0.012053
 831.700000    0.011181
 831.800000    0.010313
 831.900000    0.009427
 832.000000    0.008545
 832.100000    0.007699
 832.200000    0.006850
 832.300000    0.005998
 832.400000    0.005143
 832.500000    0.004308
 832.600000    0.003473
 832.700000    0.002610
 832.800000    0.001744
 832.900000    0.000874
 833.000000    0.000000
 833.100000    0.000000
 833.200000    0.000000
 833.300000    0.000000
