# file: BP_GAIA.Euclid.pb
# instrument: Euclid
# system: AB
# xtype: wavelength
# ytype: qe
# description: Full system QE
# comment: SPV2 values from SPV02 branch of the Euclid MDB
# comment: MDB file: EUC_MDB_MISSIONCONFIGURATION-SPV02_2018-06-16T140000.00Z_01.01.xml
# comment: MDB variable: ExternalData.GAIA.TotalSystemTransmissionExpressedAsQE
# url: http://euclid.esac.esa.int/epdb/db/SPV02/
# reference: Euclid Consortium Mission Performance Document, V 2.0
# xref: 513.0 nm
# filter: BP_GAIA
# xunit: nm
 300.00    0.0000000000
 300.25    0.0000000000
 300.50    0.0000000000
 300.75    0.0000000000
 301.00    0.0000000000
 301.25    0.0000000000
 301.50    0.0000000000
 301.75    0.0000000000
 302.00    0.0000000000
 302.25    0.0000000000
 302.50    0.0000000000
 302.75    0.0000000000
 303.00    0.0000000000
 303.25    0.0000000000
 303.50    0.0000000000
 303.75    0.0000000000
 304.00    0.0000000000
 304.25    0.0000000000
 304.50    0.0000000000
 304.75    0.0000000000
 305.00    0.0000000000
 305.25    0.0000000000
 305.50    0.0000000000
 305.75    0.0000000000
 306.00    0.0000000000
 306.25    0.0000000000
 306.50    0.0000000000
 306.75    0.0000000000
 307.00    0.0000000000
 307.25    0.0000000000
 307.50    0.0000000000
 307.75    0.0000000000
 308.00    0.0000000000
 308.25    0.0000000000
 308.50    0.0000000000
 308.75    0.0000000000
 309.00    0.0000000000
 309.25    0.0000000000
 309.50    0.0000000000
 309.75    0.0000000000
 310.00    0.0000000000
 310.25    0.0000000000
 310.50    0.0000000000
 310.75    0.0000000000
 311.00    0.0000000000
 311.25    0.0000000000
 311.50    0.0000000000
 311.75    0.0000000000
 312.00    0.0000000000
 312.25    0.0000000000
 312.50    0.0000000000
 312.75    0.0000000000
 313.00    0.0000000000
 313.25    0.0000000000
 313.50    0.0000000000
 313.75    0.0000000000
 314.00    0.0000000000
 314.25    0.0000000000
 314.50    0.0000000000
 314.75    0.0000000000
 315.00    0.0000000000
 315.25    0.0000000000
 315.50    0.0000000000
 315.75    0.0000000000
 316.00    0.0000000000
 316.25    0.0000000000
 316.50    0.0000000000
 316.75    0.0000000000
 317.00    0.0000000000
 317.25    0.0000000000
 317.50    0.0000000000
 317.75    0.0000000000
 318.00    0.0000000000
 318.25    0.0000000000
 318.50    0.0000000000
 318.75    0.0000000000
 319.00    0.0000000000
 319.25    0.0000000000
 319.50    0.0000000000
 319.75    0.0000000000
 320.00    0.0000000000
 320.25    0.0000000000
 320.50    0.0000000000
 320.75    0.0000000000
 321.00    0.0000000000
 321.25    0.0000000000
 321.50    0.0000000000
 321.75    0.0000000000
 322.00    0.0000000000
 322.25    0.0000000000
 322.50    0.0000000000
 322.75    0.0000000000
 323.00    0.0000000000
 323.25    0.0000000000
 323.50    0.0000000000
 323.75    0.0000000000
 324.00    0.0000000000
 324.25    0.0000000000
 324.50    0.0000000000
 324.75    0.0000000000
 325.00    0.0002172328
 325.25    0.0003917186
 325.50    0.0005840195
 325.75    0.0007941356
 326.00    0.0010220667
 326.25    0.0017121625
 326.50    0.0025177413
 326.75    0.0034388029
 327.00    0.0044753475
 327.25    0.0062820172
 327.50    0.0082813694
 327.75    0.0104734041
 328.00    0.0128581213
 328.25    0.0160358712
 328.50    0.0193653123
 328.75    0.0228464448
 329.00    0.0264792687
 329.25    0.0310486782
 329.50    0.0355997434
 329.75    0.0401324643
 330.00    0.0446468410
 330.25    0.0508848885
 330.50    0.0571191773
 330.75    0.0633497072
 331.00    0.0695764784
 331.25    0.0775133220
 331.50    0.0854655343
 331.75    0.0934331153
 332.00    0.1014160650
 332.25    0.1112402420
 332.50    0.1212696350
 332.75    0.1315042460
 333.00    0.1419440730
 333.25    0.1525647820
 333.50    0.1633774320
 333.75    0.1743820240
 334.00    0.1855785570
 334.25    0.1960802500
 334.50    0.2067164380
 334.75    0.2174871200
 335.00    0.2283922980
 335.25    0.2374829220
 335.50    0.2465690550
 335.75    0.2556506980
 336.00    0.2647278500
 336.25    0.2709627840
 336.50    0.2770002880
 336.75    0.2828403610
 337.00    0.2884830030
 337.25    0.2926738030
 337.50    0.2967401930
 337.75    0.3006821740
 338.00    0.3044997460
 338.25    0.3132974750
 338.50    0.3221975690
 338.75    0.3312000250
 339.00    0.3403048450
 339.25    0.3461424170
 339.50    0.3519609670
 339.75    0.3577604970
 340.00    0.3635410050
 340.25    0.3630427880
 340.50    0.3622840430
 340.75    0.3612647710
 341.00    0.3599849720
 341.25    0.3517613690
 341.50    0.3431784200
 341.75    0.3342361270
 342.00    0.3249344880
 342.25    0.3146723480
 342.50    0.3041569150
 342.75    0.2933881890
 343.00    0.2823661700
 343.25    0.2842892860
 343.50    0.2862070370
 343.75    0.2881194220
 344.00    0.2900264400
 344.25    0.3039574380
 344.50    0.3180600860
 344.75    0.3323343850
 345.00    0.3467803360
 345.25    0.3636659500
 345.50    0.3806596430
 345.75    0.3977614160
 346.00    0.4149712690
 346.25    0.4298245920
 346.50    0.4447439270
 346.75    0.4597292720
 347.00    0.4747806290
 347.25    0.4814380220
 347.50    0.4881146830
 347.75    0.4948106110
 348.00    0.5015258060
 348.25    0.5018606610
 348.50    0.5021955840
 348.75    0.5025305740
 349.00    0.5028656320
 349.25    0.5011977650
 349.50    0.4995321410
 349.75    0.4978687600
 350.00    0.4962076230
 350.25    0.4954937000
 350.50    0.4947770840
 350.75    0.4940577760
 351.00    0.4933357740
 351.25    0.4939778500
 351.50    0.4945972190
 351.75    0.4951938820
 352.00    0.4957678400
 352.25    0.4955254230
 352.50    0.4952571910
 352.75    0.4949631460
 353.00    0.4946432860
 353.25    0.4922291520
 353.50    0.4898163790
 353.75    0.4874049660
 354.00    0.4849949140
 354.25    0.4805462330
 354.50    0.4761144040
 354.75    0.4716994260
 355.00    0.4673012990
 355.25    0.4635853860
 355.50    0.4598748450
 355.75    0.4561696770
 356.00    0.4524698820
 356.25    0.4490787380
 356.50    0.4456742690
 356.75    0.4422564750
 357.00    0.4388253560
 357.25    0.4367593160
 357.50    0.4346711390
 357.75    0.4325608230
 358.00    0.4304283700
 358.25    0.4274716470
 358.50    0.4244801170
 358.75    0.4214537790
 359.00    0.4183926350
 359.25    0.4149669350
 359.50    0.4115245670
 359.75    0.4080655330
 360.00    0.4045898310
 360.25    0.4008183350
 360.50    0.3970451140
 360.75    0.3932701680
 361.00    0.3894934960
 361.25    0.3843523940
 361.50    0.3792086990
 361.75    0.3740624120
 362.00    0.3689135330
 362.25    0.3651056070
 362.50    0.3612964200
 362.75    0.3574859720
 363.00    0.3536742630
 363.25    0.3490424720
 363.50    0.3444098780
 363.75    0.3397764830
 364.00    0.3351422870
 364.25    0.3312208140
 364.50    0.3272936330
 364.75    0.3233607440
 365.00    0.3194221460
 365.25    0.3151515180
 365.50    0.3108754560
 365.75    0.3065939610
 366.00    0.3023070330
 366.25    0.2971816420
 366.50    0.2920518480
 366.75    0.2869176500
 367.00    0.2817790480
 367.25    0.2770555470
 367.50    0.2723399210
 367.75    0.2676321700
 368.00    0.2629322950
 368.25    0.2585502990
 368.50    0.2541732420
 368.75    0.2498011240
 369.00    0.2454339440
 369.25    0.2404060610
 369.50    0.2353865980
 369.75    0.2303755530
 370.00    0.2253729280
 370.25    0.2217371920
 370.50    0.2181075910
 370.75    0.2144841240
 371.00    0.2108667920
 371.25    0.2062334150
 371.50    0.2016099140
 371.75    0.1969962890
 372.00    0.1923925410
 372.25    0.1878414650
 372.50    0.1833040880
 372.75    0.1787804100
 373.00    0.1742704320
 373.25    0.1700959170
 373.50    0.1659380870
 373.75    0.1617969420
 374.00    0.1576724800
 374.25    0.1542500410
 374.50    0.1508395420
 374.75    0.1474409820
 375.00    0.1440543620
 375.25    0.1417877130
 375.50    0.1395211090
 375.75    0.1372545510
 376.00    0.1349880370
 376.25    0.1324488290
 376.50    0.1299050440
 376.75    0.1273566830
 377.00    0.1248037440
 377.25    0.1218300200
 377.50    0.1188553140
 377.75    0.1158796250
 378.00    0.1129029540
 378.25    0.1111538240
 378.50    0.1094088160
 378.75    0.1076679300
 379.00    0.1059311660
 379.25    0.1049553110
 379.50    0.1039815030
 379.75    0.1030097430
 380.00    0.1020400300
 380.25    0.1019332500
 380.50    0.1018261080
 380.75    0.1017186030
 381.00    0.1016107370
 381.25    0.1027338030
 381.50    0.1038614790
 381.75    0.1049937670
 382.00    0.1061306650
 382.25    0.1072768950
 382.50    0.1084274980
 382.75    0.1095824720
 383.00    0.1107418180
 383.25    0.1125032670
 383.50    0.1142670920
 383.75    0.1160332940
 384.00    0.1178018720
 384.25    0.1197111570
 384.50    0.1216110660
 384.75    0.1235016000
 385.00    0.1253827600
 385.25    0.1284673420
 385.50    0.1315336400
 385.75    0.1345816540
 386.00    0.1376113850
 386.25    0.1409699520
 386.50    0.1443261170
 386.75    0.1476798800
 387.00    0.1510312410
 387.25    0.1547714050
 387.50    0.1585261870
 387.75    0.1622955860
 388.00    0.1660796030
 388.25    0.1705906100
 388.50    0.1751203440
 388.75    0.1796688050
 389.00    0.1842359950
 389.25    0.1888756640
 389.50    0.1935170950
 389.75    0.1981602870
 390.00    0.2028052400
 390.25    0.2077659800
 390.50    0.2127293550
 390.75    0.2176953650
 391.00    0.2226640090
 391.25    0.2282676920
 391.50    0.2338867970
 391.75    0.2395213240
 392.00    0.2451712730
 392.25    0.2503347840
 392.50    0.2555197160
 392.75    0.2607260700
 393.00    0.2659538450
 393.25    0.2718533040
 393.50    0.2777677320
 393.75    0.2836971300
 394.00    0.2896414990
 394.25    0.2935783980
 394.50    0.2975003840
 394.75    0.3014074590
 395.00    0.3052996210
 395.25    0.3085493120
 395.50    0.3117650320
 395.75    0.3149467790
 396.00    0.3180945540
 396.25    0.3203682970
 396.50    0.3226122440
 396.75    0.3248263970
 397.00    0.3270107560
 397.25    0.3290724990
 397.50    0.3311135890
 397.75    0.3331340250
 398.00    0.3351338080
 398.25    0.3394668230
 398.50    0.3437978180
 398.75    0.3481267920
 399.00    0.3524537450
 399.25    0.3571091860
 399.50    0.3617836050
 399.75    0.3664770030
 400.00    0.3711893790
 400.25    0.3751422120
 400.50    0.3791149730
 400.75    0.3831076620
 401.00    0.3871202780
 401.25    0.3919469490
 401.50    0.3968015890
 401.75    0.4016841980
 402.00    0.4065947750
 402.25    0.4116873550
 402.50    0.4167986490
 402.75    0.4219286570
 403.00    0.4270773800
 403.25    0.4290852250
 403.50    0.4310936110
 403.75    0.4331025390
 404.00    0.4351120090
 404.25    0.4359543240
 404.50    0.4367911100
 404.75    0.4376223670
 405.00    0.4384480940
 405.25    0.4395012240
 405.50    0.4405410170
 405.75    0.4415674710
 406.00    0.4425805880
 406.25    0.4421146650
 406.50    0.4416419800
 406.75    0.4411625320
 407.00    0.4406763230
 407.25    0.4407835320
 407.50    0.4408849620
 407.75    0.4409806140
 408.00    0.4410704870
 408.25    0.4426378250
 408.50    0.4442039060
 408.75    0.4457687300
 409.00    0.4473322970
 409.25    0.4497694950
 409.50    0.4522117950
 409.75    0.4546591990
 410.00    0.4571117050
 410.25    0.4613158800
 410.50    0.4655349420
 410.75    0.4697688910
 411.00    0.4740177270
 411.25    0.4777715400
 411.50    0.4815365170
 411.75    0.4853126570
 412.00    0.4890999610
 412.25    0.4909812840
 412.50    0.4928658330
 412.75    0.4947536080
 413.00    0.4966446080
 413.25    0.4975896650
 413.50    0.4985355750
 413.75    0.4994823360
 414.00    0.5004299500
 414.25    0.5025116230
 414.50    0.5045968340
 414.75    0.5066855820
 415.00    0.5087778670
 415.25    0.5104175450
 415.50    0.5120588890
 415.75    0.5137018980
 416.00    0.5153465730
 416.25    0.5165753500
 416.50    0.5178044750
 416.75    0.5190339460
 417.00    0.5202637630
 417.25    0.5210347760
 417.50    0.5218016310
 417.75    0.5225643260
 418.00    0.5233228620
 418.25    0.5232840370
 418.50    0.5232425640
 418.75    0.5231984420
 419.00    0.5231516710
 419.25    0.5236609370
 419.50    0.5241683240
 419.75    0.5246738330
 420.00    0.5251774640
 420.25    0.5266526900
 420.50    0.5281286310
 420.75    0.5296052880
 421.00    0.5310826600
 421.25    0.5324060630
 421.50    0.5337311090
 421.75    0.5350578000
 422.00    0.5363861340
 422.25    0.5390337480
 422.50    0.5416862030
 422.75    0.5443434990
 423.00    0.5470056360
 423.25    0.5479439680
 423.50    0.5488830420
 423.75    0.5498228600
 424.00    0.5507634220
 424.25    0.5502492930
 424.50    0.5497353920
 424.75    0.5492217170
 425.00    0.5487082690
 425.25    0.5496997390
 425.50    0.5506909250
 425.75    0.5516818270
 426.00    0.5526724450
 426.25    0.5540687520
 426.50    0.5554625170
 426.75    0.5568537390
 427.00    0.5582424190
 427.25    0.5588740370
 427.50    0.5595041640
 427.75    0.5601327990
 428.00    0.5607599430
 428.25    0.5610047480
 428.50    0.5612492630
 428.75    0.5614934880
 429.00    0.5617374220
 429.25    0.5626114950
 429.50    0.5634853110
 429.75    0.5643588690
 430.00    0.5652321690
 430.25    0.5660523260
 430.50    0.5668730450
 430.75    0.5676943260
 431.00    0.5685161690
 431.25    0.5697485290
 431.50    0.5709821750
 431.75    0.5722171080
 432.00    0.5734533280
 432.25    0.5755851670
 432.50    0.5777206390
 432.75    0.5798597460
 433.00    0.5820024860
 433.25    0.5836976460
 433.50    0.5853944360
 433.75    0.5870928580
 434.00    0.5887929090
 434.25    0.5898850930
 434.50    0.5909744530
 434.75    0.5920609890
 435.00    0.5931447010
 435.25    0.5928459340
 435.50    0.5925426010
 435.75    0.5922347020
 436.00    0.5919222360
 436.25    0.5892183550
 436.50    0.5865190250
 436.75    0.5838242480
 437.00    0.5811340240
 437.25    0.5797516860
 437.50    0.5783674580
 437.75    0.5769813410
 438.00    0.5755933340
 438.25    0.5749982500
 438.50    0.5744010500
 438.75    0.5738017340
 439.00    0.5732003020
 439.25    0.5737895370
 439.50    0.5743771720
 439.75    0.5749632070
 440.00    0.5755476420
 440.25    0.5765757560
 440.50    0.5776041790
 440.75    0.5786329130
 441.00    0.5796619580
 441.25    0.5810822110
 441.50    0.5825035800
 441.75    0.5839260650
 442.00    0.5853496650
 442.25    0.5874682280
 442.50    0.5895901630
 442.75    0.5917154710
 443.00    0.5938441510
 443.25    0.5955675540
 443.50    0.5972934450
 443.75    0.5990218230
 444.00    0.6007526900
 444.25    0.6031167960
 444.50    0.6054855450
 444.75    0.6078589350
 445.00    0.6102369680
 445.25    0.6119007460
 445.50    0.6135660500
 445.75    0.6152328800
 446.00    0.6169012360
 446.25    0.6176242940
 446.50    0.6183466730
 446.75    0.6190683730
 447.00    0.6197893950
 447.25    0.6214437990
 447.50    0.6230999650
 447.75    0.6247578930
 448.00    0.6264175830
 448.25    0.6279860360
 448.50    0.6295545040
 448.75    0.6311229860
 449.00    0.6326914820
 449.25    0.6321275030
 449.50    0.6315637230
 449.75    0.6310001430
 450.00    0.6304367620
 450.25    0.6296639250
 450.50    0.6288915500
 450.75    0.6281196360
 451.00    0.6273481850
 451.25    0.6283452740
 451.50    0.6293391810
 451.75    0.6303299050
 452.00    0.6313174460
 452.25    0.6315564110
 452.50    0.6317942780
 452.75    0.6320310450
 453.00    0.6322667120
 453.25    0.6316607840
 453.50    0.6310549710
 453.75    0.6304492730
 454.00    0.6298436910
 454.25    0.6304956400
 454.50    0.6311472920
 454.75    0.6317986450
 455.00    0.6324497010
 455.25    0.6335635340
 455.50    0.6346782340
 455.75    0.6357938020
 456.00    0.6369102380
 456.25    0.6373279580
 456.50    0.6377452170
 456.75    0.6381620120
 457.00    0.6385783450
 457.25    0.6398941220
 457.50    0.6412108890
 457.75    0.6425286460
 458.00    0.6438473940
 458.25    0.6457320680
 458.50    0.6476193980
 458.75    0.6495093840
 459.00    0.6514020270
 459.25    0.6520852120
 459.50    0.6527687120
 459.75    0.6534525290
 460.00    0.6541366620
 460.25    0.6542694260
 460.50    0.6544013800
 460.75    0.6545325230
 461.00    0.6546628550
 461.25    0.6541824010
 461.50    0.6537013540
 461.75    0.6532197150
 462.00    0.6527374840
 462.25    0.6518486350
 462.50    0.6509602600
 462.75    0.6500723590
 463.00    0.6491849320
 463.25    0.6494239960
 463.50    0.6496628200
 463.75    0.6499014030
 464.00    0.6501397460
 464.25    0.6518111600
 464.50    0.6534839240
 464.75    0.6551580380
 465.00    0.6568335030
 465.25    0.6585573940
 465.50    0.6602835370
 465.75    0.6620119310
 466.00    0.6637425770
 466.25    0.6641903180
 466.50    0.6646359310
 466.75    0.6650794150
 467.00    0.6655207710
 467.25    0.6660149570
 467.50    0.6665076120
 467.75    0.6669987370
 468.00    0.6674883310
 468.25    0.6692042250
 468.50    0.6709221500
 468.75    0.6726421050
 469.00    0.6743640900
 469.25    0.6745852860
 469.50    0.6748064180
 469.75    0.6750274860
 470.00    0.6752484890
 470.25    0.6742756260
 470.50    0.6733033610
 470.75    0.6723316960
 471.00    0.6713606300
 471.25    0.6717743280
 471.50    0.6721851030
 471.75    0.6725929530
 472.00    0.6729978790
 472.25    0.6722599770
 472.50    0.6715204760
 472.75    0.6707793750
 473.00    0.6700366760
 473.25    0.6679769900
 473.50    0.6659198870
 473.75    0.6638653670
 474.00    0.6618134290
 474.25    0.6602033180
 474.50    0.6585938250
 474.75    0.6569849510
 475.00    0.6553766940
 475.25    0.6546270400
 475.50    0.6538743510
 475.75    0.6531186290
 476.00    0.6523598720
 476.25    0.6522966630
 476.50    0.6522301140
 476.75    0.6521602270
 477.00    0.6520870000
 477.25    0.6517455110
 477.50    0.6514036980
 477.75    0.6510615620
 478.00    0.6507191020
 478.25    0.6502621520
 478.50    0.6498047120
 478.75    0.6493467820
 479.00    0.6488883620
 479.25    0.6489660620
 479.50    0.6490423070
 479.75    0.6491170980
 480.00    0.6491904340
 480.25    0.6522734460
 480.50    0.6553637610
 480.75    0.6584613790
 481.00    0.6615663000
 481.25    0.6626870720
 481.50    0.6638037950
 481.75    0.6649164680
 482.00    0.6660250900
 482.25    0.6662770020
 482.50    0.6665211660
 482.75    0.6667575830
 483.00    0.6669862530
 483.25    0.6676602390
 483.50    0.6683329000
 483.75    0.6690042340
 484.00    0.6696742430
 484.25    0.6706254900
 484.50    0.6715774040
 484.75    0.6725299850
 485.00    0.6734832330
 485.25    0.6734836200
 485.50    0.6734832430
 485.75    0.6734821040
 486.00    0.6734802030
 486.25    0.6730637290
 486.50    0.6726459990
 486.75    0.6722270100
 487.00    0.6718067650
 487.25    0.6703077120
 487.50    0.6688096900
 487.75    0.6673126990
 488.00    0.6658167380
 488.25    0.6647871930
 488.50    0.6637582960
 488.75    0.6627300470
 489.00    0.6617024460
 489.25    0.6614947490
 489.50    0.6612870830
 489.75    0.6610794510
 490.00    0.6608718500
 490.25    0.6608657880
 490.50    0.6608592350
 490.75    0.6608521920
 491.00    0.6608446580
 491.25    0.6605523240
 491.50    0.6602573760
 491.75    0.6599598160
 492.00    0.6596596440
 492.25    0.6600774100
 492.50    0.6604946960
 492.75    0.6609115030
 493.00    0.6613278310
 493.25    0.6623694970
 493.50    0.6634119420
 493.75    0.6644551660
 494.00    0.6654991680
 494.25    0.6671782660
 494.50    0.6688586210
 494.75    0.6705402310
 495.00    0.6722230980
 495.25    0.6723134770
 495.50    0.6724038460
 495.75    0.6724942040
 496.00    0.6725845510
 496.25    0.6723858060
 496.50    0.6721869740
 496.75    0.6719880550
 497.00    0.6717890490
 497.25    0.6717213360
 497.50    0.6716533130
 497.75    0.6715849780
 498.00    0.6715163320
 498.25    0.6702603440
 498.50    0.6690028010
 498.75    0.6677437040
 499.00    0.6664830520
 499.25    0.6658849580
 499.50    0.6652861770
 499.75    0.6646867070
 500.00    0.6640865480
 500.25    0.6642371710
 500.50    0.6643878040
 500.75    0.6645384480
 501.00    0.6646891020
 501.25    0.6659582240
 501.50    0.6672261660
 501.75    0.6684929280
 502.00    0.6697585090
 502.25    0.6685462560
 502.50    0.6673350340
 502.75    0.6661248430
 503.00    0.6649156820
 503.25    0.6635698210
 503.50    0.6622252690
 503.75    0.6608820260
 504.00    0.6595400920
 504.25    0.6593507710
 504.50    0.6591613200
 504.75    0.6589717390
 505.00    0.6587820280
 505.25    0.6586035260
 505.50    0.6584249830
 505.75    0.6582463990
 506.00    0.6580677760
 506.25    0.6590826600
 506.50    0.6600982550
 506.75    0.6611145590
 507.00    0.6621315750
 507.25    0.6619701100
 507.50    0.6618070350
 507.75    0.6616423500
 508.00    0.6614760540
 508.25    0.6604372600
 508.50    0.6593952110
 508.75    0.6583499070
 509.00    0.6573013470
 509.25    0.6583460450
 509.50    0.6593915720
 509.75    0.6604379260
 510.00    0.6614851090
 510.25    0.6623701070
 510.50    0.6632556100
 510.75    0.6641416170
 511.00    0.6650281300
 511.25    0.6641708280
 511.50    0.6633134860
 511.75    0.6624561030
 512.00    0.6615986810
 512.25    0.6596680900
 512.50    0.6577372570
 512.75    0.6558061810
 513.00    0.6538748620
 513.25    0.6549707400
 513.50    0.6560664160
 513.75    0.6571618880
 514.00    0.6582571570
 514.25    0.6579313950
 514.50    0.6576056580
 514.75    0.6572799470
 515.00    0.6569542610
 515.25    0.6555669910
 515.50    0.6541803880
 515.75    0.6527944530
 516.00    0.6514091850
 516.25    0.6506829130
 516.50    0.6499568410
 516.75    0.6492309680
 517.00    0.6485052950
 517.25    0.6473179960
 517.50    0.6461314680
 517.75    0.6449457110
 518.00    0.6437607260
 518.25    0.6435215740
 518.50    0.6432820710
 518.75    0.6430422160
 519.00    0.6428020100
 519.25    0.6436742550
 519.50    0.6445455030
 519.75    0.6454157540
 520.00    0.6462850070
 520.25    0.6463649440
 520.50    0.6464448840
 520.75    0.6465248280
 521.00    0.6466047760
 521.25    0.6457824510
 521.50    0.6449596400
 521.75    0.6441363420
 522.00    0.6433125570
 522.25    0.6422909700
 522.50    0.6412682910
 522.75    0.6402445220
 523.00    0.6392196610
 523.25    0.6391400980
 523.50    0.6390598750
 523.75    0.6389789910
 524.00    0.6388974460
 524.25    0.6393223380
 524.50    0.6397473320
 524.75    0.6401724290
 525.00    0.6405976290
 525.25    0.6400244120
 525.50    0.6394512190
 525.75    0.6388780510
 526.00    0.6383049080
 526.25    0.6374925300
 526.50    0.6366806270
 526.75    0.6358691990
 527.00    0.6350582460
 527.25    0.6336294180
 527.50    0.6322022000
 527.75    0.6307765920
 528.00    0.6293525920
 528.25    0.6273568460
 528.50    0.6253642680
 528.75    0.6233748580
 529.00    0.6213886160
 529.25    0.6194211200
 529.50    0.6174567250
 529.75    0.6154954330
 530.00    0.6135372420
 530.25    0.6130370540
 530.50    0.6125348570
 530.75    0.6120306530
 531.00    0.6115244410
 531.25    0.6106200520
 531.50    0.6097146730
 531.75    0.6088083040
 532.00    0.6079009450
 532.25    0.6071593060
 532.50    0.6064167400
 532.75    0.6056732460
 533.00    0.6049288250
 533.25    0.6043149060
 533.50    0.6036994550
 533.75    0.6030824720
 534.00    0.6024639580
 534.25    0.6005252190
 534.50    0.5985893830
 534.75    0.5966564510
 535.00    0.5947264210
 535.25    0.5935998220
 535.50    0.5924742900
 535.75    0.5913498240
 536.00    0.5902264240
 536.25    0.5894543470
 536.50    0.5886825220
 536.75    0.5879109490
 537.00    0.5871396270
 537.25    0.5869870450
 537.50    0.5868341560
 537.75    0.5866809590
 538.00    0.5865274550
 538.25    0.5874761040
 538.50    0.5884254820
 538.75    0.5893755900
 539.00    0.5903264280
 539.25    0.5915828540
 539.50    0.5928404450
 539.75    0.5940992030
 540.00    0.5953591280
 540.25    0.5962411970
 540.50    0.5971228560
 540.75    0.5980041060
 541.00    0.5988849460
 541.25    0.5992439140
 541.50    0.5996018010
 541.75    0.5999586080
 542.00    0.6003143340
 542.25    0.5994134690
 542.50    0.5985108990
 542.75    0.5976066240
 543.00    0.5967006440
 543.25    0.5957143560
 543.50    0.5947279440
 543.75    0.5937414070
 544.00    0.5927547460
 544.25    0.5923981930
 544.50    0.5920416170
 544.75    0.5916850190
 545.00    0.5913283980
 545.25    0.5917747150
 545.50    0.5922192540
 545.75    0.5926620150
 546.00    0.5931029990
 546.25    0.5935067540
 546.50    0.5939089160
 546.75    0.5943094860
 547.00    0.5947084630
 547.25    0.5932654860
 547.50    0.5918241760
 547.75    0.5903845340
 548.00    0.5889465600
 548.25    0.5881466540
 548.50    0.5873472060
 548.75    0.5865482140
 549.00    0.5857496790
 549.25    0.5854441470
 549.50    0.5851386540
 549.75    0.5848332020
 550.00    0.5845277890
 550.25    0.5835840740
 550.50    0.5826405720
 550.75    0.5816972820
 551.00    0.5807542060
 551.25    0.5797684480
 551.50    0.5787829620
 551.75    0.5777977480
 552.00    0.5768128060
 552.25    0.5785075140
 552.50    0.5802010090
 552.75    0.5818932890
 553.00    0.5835843560
 553.25    0.5837067690
 553.50    0.5838287040
 553.75    0.5839501620
 554.00    0.5840711430
 554.25    0.5830934450
 554.50    0.5821165550
 554.75    0.5811404740
 555.00    0.5801652020
 555.25    0.5797904230
 555.50    0.5794157040
 555.75    0.5790410450
 556.00    0.5786664470
 556.25    0.5783778250
 556.50    0.5780892720
 556.75    0.5778007880
 557.00    0.5775123720
 557.25    0.5771618140
 557.50    0.5768109630
 557.75    0.5764598180
 558.00    0.5761083780
 558.25    0.5759871350
 558.50    0.5758650650
 558.75    0.5757421680
 559.00    0.5756184440
 559.25    0.5769203550
 559.50    0.5782236730
 559.75    0.5795283960
 560.00    0.5808345260
 560.25    0.5810507070
 560.50    0.5812651810
 560.75    0.5814779490
 561.00    0.5816890110
 561.25    0.5832679850
 561.50    0.5848490230
 561.75    0.5864321240
 562.00    0.5880172900
 562.25    0.5883953380
 562.50    0.5887728590
 562.75    0.5891498530
 563.00    0.5895263210
 563.25    0.5904507170
 563.50    0.5913758310
 563.75    0.5923016640
 564.00    0.5932282150
 564.25    0.5936408200
 564.50    0.5940535080
 564.75    0.5944662800
 565.00    0.5948791340
 565.25    0.5948766950
 565.50    0.5948741070
 565.75    0.5948713710
 566.00    0.5948684860
 566.25    0.5963087310
 566.50    0.5977503420
 566.75    0.5991933180
 567.00    0.6006376600
 567.25    0.6011515600
 567.50    0.6016656590
 567.75    0.6021799570
 568.00    0.6026944530
 568.25    0.6017503920
 568.50    0.6008046150
 568.75    0.5998571210
 569.00    0.5989079090
 569.25    0.6000936850
 569.50    0.6012801480
 569.75    0.6024673000
 570.00    0.6036551390
 570.25    0.6030998780
 570.50    0.6025443670
 570.75    0.6019886080
 571.00    0.6014326010
 571.25    0.6014451960
 571.50    0.6014577910
 571.75    0.6014703860
 572.00    0.6014829810
 572.25    0.6012141970
 572.50    0.6009453280
 572.75    0.6006763760
 573.00    0.6004073410
 573.25    0.6008210240
 573.50    0.6012330210
 573.75    0.6016433310
 574.00    0.6020519560
 574.25    0.6009959260
 574.50    0.5999408220
 574.75    0.5988866460
 575.00    0.5978333960
 575.25    0.5973921250
 575.50    0.5969508640
 575.75    0.5965096120
 576.00    0.5960683700
 576.25    0.5958421160
 576.50    0.5956154820
 576.75    0.5953884680
 577.00    0.5951610750
 577.25    0.5964099320
 577.50    0.5976583150
 577.75    0.5989062240
 578.00    0.6001536600
 578.25    0.5999659960
 578.50    0.5997776930
 578.75    0.5995887480
 579.00    0.5993991640
 579.25    0.5998125940
 579.50    0.6002261340
 579.75    0.6006397830
 580.00    0.6010535420
 580.25    0.6025151100
 580.50    0.6039783470
 580.75    0.6054432520
 581.00    0.6069098270
 581.25    0.6066926840
 581.50    0.6064739000
 581.75    0.6062534750
 582.00    0.6060314090
 582.25    0.6075789540
 582.50    0.6091281680
 582.75    0.6106790480
 583.00    0.6122315970
 583.25    0.6122600240
 583.50    0.6122873870
 583.75    0.6123136830
 584.00    0.6123389140
 584.25    0.6121930480
 584.50    0.6120460210
 584.75    0.6118978350
 585.00    0.6117484890
 585.25    0.6110829720
 585.50    0.6104157700
 585.75    0.6097468830
 586.00    0.6090763110
 586.25    0.6113239560
 586.50    0.6135737810
 586.75    0.6158257860
 587.00    0.6180799710
 587.25    0.6188556180
 587.50    0.6196317430
 587.75    0.6204083450
 588.00    0.6211854250
 588.25    0.6226487620
 588.50    0.6241133230
 588.75    0.6255791090
 589.00    0.6270461180
 589.25    0.6280544950
 589.50    0.6290636220
 589.75    0.6300734990
 590.00    0.6310841270
 590.25    0.6298543720
 590.50    0.6286242460
 590.75    0.6273937480
 591.00    0.6261628780
 591.25    0.6241980700
 591.50    0.6222334080
 591.75    0.6202688920
 592.00    0.6183045210
 592.25    0.6194715700
 592.50    0.6206363640
 592.75    0.6217989040
 593.00    0.6229591890
 593.25    0.6225280330
 593.50    0.6220964920
 593.75    0.6216645640
 594.00    0.6212322490
 594.25    0.6205359740
 594.50    0.6198386830
 594.75    0.6191403770
 595.00    0.6184410560
 595.25    0.6192758240
 595.50    0.6201047150
 595.75    0.6209277260
 596.00    0.6217448590
 596.25    0.6189358420
 596.50    0.6161329780
 596.75    0.6133362670
 597.00    0.6105457100
 597.25    0.6093849070
 597.50    0.6082243030
 597.75    0.6070638980
 598.00    0.6059036930
 598.25    0.6042209970
 598.50    0.6025406400
 598.75    0.6008626200
 599.00    0.5991869380
 599.25    0.5987854370
 599.50    0.5983835400
 599.75    0.5979812470
 600.00    0.5975785580
 600.25    0.5998861790
 600.50    0.6021918860
 600.75    0.6044956800
 601.00    0.6067975600
 601.25    0.6054061300
 601.50    0.6040134060
 601.75    0.6026193860
 602.00    0.6012240710
 602.25    0.6016644580
 602.50    0.6021045330
 602.75    0.6025442960
 603.00    0.6029837470
 603.25    0.6046044450
 603.50    0.6062273120
 603.75    0.6078523490
 604.00    0.6094795560
 604.25    0.6094679970
 604.50    0.6094527030
 604.75    0.6094336730
 605.00    0.6094109070
 605.25    0.6106316420
 605.50    0.6118525960
 605.75    0.6130737680
 606.00    0.6142951590
 606.25    0.6146603660
 606.50    0.6150225870
 606.75    0.6153818230
 607.00    0.6157380730
 607.25    0.6175082000
 607.50    0.6192808050
 607.75    0.6210558860
 608.00    0.6228334450
 608.25    0.6238174040
 608.50    0.6248020750
 608.75    0.6257874600
 609.00    0.6267735570
 609.25    0.6267471700
 609.50    0.6267200680
 609.75    0.6266922490
 610.00    0.6266637140
 610.25    0.6277383120
 610.50    0.6288134250
 610.75    0.6298890530
 611.00    0.6309651970
 611.25    0.6296167790
 611.50    0.6282686640
 611.75    0.6269208520
 612.00    0.6255733440
 612.25    0.6257080470
 612.50    0.6258425750
 612.75    0.6259769270
 613.00    0.6261111030
 613.25    0.6257760030
 613.50    0.6254409890
 613.75    0.6251060590
 614.00    0.6247712140
 614.25    0.6248811050
 614.50    0.6249905000
 614.75    0.6250993970
 615.00    0.6252077970
 615.25    0.6248986120
 615.50    0.6245894410
 615.75    0.6242802840
 616.00    0.6239711400
 616.25    0.6229336760
 616.50    0.6218970440
 616.75    0.6208612450
 617.00    0.6198262800
 617.25    0.6176771740
 617.50    0.6155310120
 617.75    0.6133877940
 618.00    0.6112475210
 618.25    0.6111413850
 618.50    0.6110335420
 618.75    0.6109239910
 619.00    0.6108127320
 619.25    0.6105818890
 619.50    0.6103488000
 619.75    0.6101134670
 620.00    0.6098758870
 620.25    0.6087745390
 620.50    0.6076729270
 620.75    0.6065710520
 621.00    0.6054689130
 621.25    0.6056462310
 621.50    0.6058184610
 621.75    0.6059856060
 622.00    0.6061476640
 622.25    0.6035535880
 622.50    0.6009650290
 622.75    0.5983819860
 623.00    0.5958044600
 623.25    0.5933243110
 623.50    0.5908489190
 623.75    0.5883782850
 624.00    0.5859124090
 624.25    0.5855810570
 624.50    0.5852491650
 624.75    0.5849167330
 625.00    0.5845837590
 625.25    0.5843929460
 625.50    0.5842021380
 625.75    0.5840113350
 626.00    0.5838205370
 626.25    0.5846601620
 626.50    0.5855003640
 626.75    0.5863411450
 627.00    0.5871825020
 627.25    0.5874809790
 627.50    0.5877782340
 627.75    0.5880742690
 628.00    0.5883690830
 628.25    0.5895782270
 628.50    0.5907882080
 628.75    0.5919990260
 629.00    0.5932106810
 629.25    0.5933530950
 629.50    0.5934923330
 629.75    0.5936283960
 630.00    0.5937612840
 630.25    0.5952530540
 630.50    0.5967462610
 630.75    0.5982409040
 631.00    0.5997369840
 631.25    0.6017043680
 631.50    0.6036749400
 631.75    0.6056486990
 632.00    0.6076256460
 632.25    0.6073580760
 632.50    0.6070892060
 632.75    0.6068190370
 633.00    0.6065475680
 633.25    0.6067017740
 633.50    0.6068556450
 633.75    0.6070091790
 634.00    0.6071623780
 634.25    0.6063901320
 634.50    0.6056175770
 634.75    0.6048447130
 635.00    0.6040715400
 635.25    0.6050192990
 635.50    0.6059668580
 635.75    0.6069142160
 636.00    0.6078613710
 636.25    0.6075195490
 636.50    0.6071778010
 636.75    0.6068361250
 637.00    0.6064945160
 637.25    0.6072181540
 637.50    0.6079411800
 637.75    0.6086635840
 638.00    0.6093853550
 638.25    0.6080917220
 638.50    0.6067981520
 638.75    0.6055046240
 639.00    0.6042111110
 639.25    0.6038239440
 639.50    0.6034365990
 639.75    0.6030490240
 640.00    0.6026611560
 640.25    0.6027565320
 640.50    0.6028513830
 640.75    0.6029455940
 641.00    0.6030390270
 641.25    0.6042381700
 641.50    0.6054368940
 641.75    0.6066349490
 642.00    0.6078320360
 642.25    0.6084956890
 642.50    0.6091571820
 642.75    0.6098160200
 643.00    0.6104716190
 643.25    0.6106373120
 643.50    0.6107977000
 643.75    0.6109518600
 644.00    0.6110987140
 644.25    0.6104323150
 644.50    0.6097559020
 644.75    0.6090678620
 645.00    0.6083663490
 645.25    0.6087037110
 645.50    0.6090233600
 645.75    0.6093224780
 646.00    0.6095978770
 646.25    0.6114123110
 646.50    0.6131947350
 646.75    0.6149403600
 647.00    0.6166438300
 647.25    0.6159898720
 647.50    0.6152835790
 647.75    0.6145183000
 648.00    0.6136867510
 648.25    0.6119474380
 648.50    0.6101271190
 648.75    0.6082168610
 649.00    0.6062070770
 649.25    0.6060881880
 649.50    0.6058413150
 649.75    0.6054535950
 650.00    0.6049113940
 650.25    0.6037912030
 650.50    0.6024894500
 650.75    0.6009907980
 651.00    0.5992793670
 651.25    0.5970101170
 651.50    0.5944979230
 651.75    0.5917262420
 652.00    0.5886784310
 652.25    0.5856656020
 652.50    0.5823394170
 652.75    0.5786832720
 653.00    0.5746810530
 653.25    0.5697314620
 653.50    0.5644163880
 653.75    0.5587234860
 654.00    0.5526417180
 654.25    0.5458332990
 654.50    0.5386267010
 654.75    0.5310166710
 655.00    0.5230000010
 655.25    0.5154463840
 655.50    0.5074580390
 655.75    0.4990365870
 656.00    0.4901862150
 656.25    0.4803208910
 656.50    0.4700678620
 656.75    0.4594408560
 657.00    0.4484562770
 657.25    0.4382314690
 657.50    0.4276321420
 657.75    0.4166800560
 658.00    0.4053995420
 658.25    0.3926522730
 658.50    0.3797071600
 658.75    0.3665969590
 659.00    0.3533558550
 659.25    0.3410494700
 659.50    0.3286043390
 659.75    0.3160568160
 660.00    0.3034439610
 660.25    0.2900988610
 660.50    0.2768274340
 660.75    0.2636662320
 661.00    0.2506509040
 661.25    0.2379964190
 661.50    0.2255362060
 661.75    0.2133020710
 662.00    0.2013239590
 662.25    0.1893035090
 662.50    0.1776319920
 662.75    0.1663308250
 663.00    0.1554187430
 663.25    0.1452539510
 663.50    0.1354605940
 663.75    0.1260519340
 664.00    0.1170385500
 664.25    0.1084527220
 664.50    0.1002716760
 664.75    0.0924984909
 665.00    0.0851338178
 665.25    0.0782231770
 665.50    0.0717075570
 665.75    0.0655818806
 666.00    0.0598392087
 666.25    0.0544390786
 666.50    0.0494091506
 666.75    0.0447373218
 667.00    0.0404103896
 667.25    0.0363659634
 667.50    0.0326473522
 667.75    0.0292379398
 668.00    0.0261208225
 668.25    0.0232637419
 668.50    0.0206682949
 668.75    0.0183171558
 669.00    0.0161933203
 669.25    0.0142804123
 669.50    0.0125621236
 669.75    0.0110229973
 670.00    0.0096482324
 670.25    0.0084462687
 670.50    0.0073754239
 670.75    0.0064240962
 671.00    0.0055813391
 671.25    0.0048216520
 671.50    0.0041548350
 671.75    0.0035711821
 672.00    0.0030617592
 672.25    0.0026308248
 672.50    0.0022548226
 672.75    0.0019276838
 673.00    0.0016438683
 673.25    0.0013938636
 673.50    0.0011789671
 673.75    0.0009947691
 674.00    0.0008373294
 674.25    0.0007029325
 674.50    0.0005887421
 674.75    0.0004919937
 675.00    0.0004102539
 675.25    0.0003411404
 675.50    0.0002831216
 675.75    0.0002345536
 676.00    0.0001940112
 676.25    0.0001604793
 676.50    0.0001326070
 676.75    0.0001095047
 677.00    0.0000904100
 677.25    0.0000747382
 677.50    0.0000618471
 677.75    0.0000512735
 678.00    0.0000426257
 678.25    0.0000355771
 678.50    0.0000298449
 678.75    0.0000251967
 679.00    0.0000214385
 679.25    0.0000183843
 679.50    0.0000159313
 679.75    0.0000139668
 680.00    0.0000123981
 680.25    0.0000111501
 680.50    0.0000101593
 680.75    0.0000093750
 681.00    0.0000087560
 681.25    0.0000082653
 681.50    0.0000078801
 681.75    0.0000075783
 682.00    0.0000073426
 682.25    0.0000071634
 682.50    0.0000070249
 682.75    0.0000069184
 683.00    0.0000068370
 683.25    0.0000067747
 683.50    0.0000067276
 683.75    0.0000066922
 684.00    0.0000066660
 684.25    0.0000066496
 684.50    0.0000066385
 684.75    0.0000066316
 685.00    0.0000066278
 685.25    0.0000066243
 685.50    0.0000066226
 685.75    0.0000066223
 686.00    0.0000066231
 686.25    0.0000066228
 686.50    0.0000066232
 686.75    0.0000066240
 687.00    0.0000066251
 687.25    0.0000066262
 687.50    0.0000066274
 687.75    0.0000066287
 688.00    0.0000066302
 688.25    0.0000066417
 688.50    0.0000066533
 688.75    0.0000066649
 689.00    0.0000066766
 689.25    0.0000066684
 689.50    0.0000066603
 689.75    0.0000066522
 690.00    0.0000066441
 690.25    0.0000066525
 690.50    0.0000066609
 690.75    0.0000066693
 691.00    0.0000066777
 691.25    0.0000066961
 691.50    0.0000067145
 691.75    0.0000067330
 692.00    0.0000067514
 692.25    0.0000067278
 692.50    0.0000067043
 692.75    0.0000066807
 693.00    0.0000066571
 693.25    0.0000066716
 693.50    0.0000066862
 693.75    0.0000067007
 694.00    0.0000067153
 694.25    0.0000067092
 694.50    0.0000067031
 694.75    0.0000066969
 695.00    0.0000066908
 695.25    0.0000066984
 695.50    0.0000067060
 695.75    0.0000067135
 696.00    0.0000067211
 696.25    0.0000067226
 696.50    0.0000067240
 696.75    0.0000067254
 697.00    0.0000067269
 697.25    0.0000067273
 697.50    0.0000067276
 697.75    0.0000067280
 698.00    0.0000067284
 698.25    0.0000067417
 698.50    0.0000067551
 698.75    0.0000067684
 699.00    0.0000067818
 699.25    0.0000067837
 699.50    0.0000067856
 699.75    0.0000067874
 700.00    0.0000067893
 700.25    0.0000067934
 700.50    0.0000067975
 700.75    0.0000068015
 701.00    0.0000068056
 701.25    0.0000067846
 701.50    0.0000067636
 701.75    0.0000067426
 702.00    0.0000067216
 702.25    0.0000067216
 702.50    0.0000067215
 702.75    0.0000067215
 703.00    0.0000067214
 703.25    0.0000067389
 703.50    0.0000067564
 703.75    0.0000067738
 704.00    0.0000067913
 704.25    0.0000067961
 704.50    0.0000068009
 704.75    0.0000068057
 705.00    0.0000068105
 705.25    0.0000068162
 705.50    0.0000068219
 705.75    0.0000068276
 706.00    0.0000068333
 706.25    0.0000068248
 706.50    0.0000068163
 706.75    0.0000068077
 707.00    0.0000067992
 707.25    0.0000067914
 707.50    0.0000067836
 707.75    0.0000067758
 708.00    0.0000067680
 708.25    0.0000067655
 708.50    0.0000067629
 708.75    0.0000067603
 709.00    0.0000067578
 709.25    0.0000067640
 709.50    0.0000067702
 709.75    0.0000067765
 710.00    0.0000067827
 710.25    0.0000067867
 710.50    0.0000067907
 710.75    0.0000067947
 711.00    0.0000067987
 711.25    0.0000068004
 711.50    0.0000068021
 711.75    0.0000068037
 712.00    0.0000068054
 712.25    0.0000068055
 712.50    0.0000068055
 712.75    0.0000068056
 713.00    0.0000068056
 713.25    0.0000068102
 713.50    0.0000068148
 713.75    0.0000068194
 714.00    0.0000068240
 714.25    0.0000068150
 714.50    0.0000068060
 714.75    0.0000067970
 715.00    0.0000067880
 715.25    0.0000067920
 715.50    0.0000067960
 715.75    0.0000068001
 716.00    0.0000068041
 716.25    0.0000068084
 716.50    0.0000068126
 716.75    0.0000068169
 717.00    0.0000068211
 717.25    0.0000068131
 717.50    0.0000068050
 717.75    0.0000067970
 718.00    0.0000067889
 718.25    0.0000067878
 718.50    0.0000067868
 718.75    0.0000067857
 719.00    0.0000067846
 719.25    0.0000068047
 719.50    0.0000068249
 719.75    0.0000068450
 720.00    0.0000068652
 720.25    0.0000068480
 720.50    0.0000068309
 720.75    0.0000068137
 721.00    0.0000067966
 721.25    0.0000067942
 721.50    0.0000067918
 721.75    0.0000067895
 722.00    0.0000067871
 722.25    0.0000067815
 722.50    0.0000067759
 722.75    0.0000067703
 723.00    0.0000067648
 723.25    0.0000067835
 723.50    0.0000068022
 723.75    0.0000068210
 724.00    0.0000068397
 724.25    0.0000068289
 724.50    0.0000068180
 724.75    0.0000068072
 725.00    0.0000067963
 725.25    0.0000068178
 725.50    0.0000068392
 725.75    0.0000068606
 726.00    0.0000068821
 726.25    0.0000068732
 726.50    0.0000068644
 726.75    0.0000068555
 727.00    0.0000068466
 727.25    0.0000068310
 727.50    0.0000068154
 727.75    0.0000067997
 728.00    0.0000067841
 728.25    0.0000067828
 728.50    0.0000067816
 728.75    0.0000067804
 729.00    0.0000067791
 729.25    0.0000067714
 729.50    0.0000067636
 729.75    0.0000067558
 730.00    0.0000067481
 730.25    0.0000067608
 730.50    0.0000067734
 730.75    0.0000067861
 731.00    0.0000067988
 731.25    0.0000067943
 731.50    0.0000067898
 731.75    0.0000067853
 732.00    0.0000067808
 732.25    0.0000067856
 732.50    0.0000067904
 732.75    0.0000067951
 733.00    0.0000067999
 733.25    0.0000068011
 733.50    0.0000068022
 733.75    0.0000068033
 734.00    0.0000068045
 734.25    0.0000068037
 734.50    0.0000068030
 734.75    0.0000068023
 735.00    0.0000068015
 735.25    0.0000067888
 735.50    0.0000067760
 735.75    0.0000067633
 736.00    0.0000067505
 736.25    0.0000067457
 736.50    0.0000067408
 736.75    0.0000067359
 737.00    0.0000067311
 737.25    0.0000067413
 737.50    0.0000067514
 737.75    0.0000067616
 738.00    0.0000067718
 738.25    0.0000067800
 738.50    0.0000067881
 738.75    0.0000067962
 739.00    0.0000068043
 739.25    0.0000068032
 739.50    0.0000068020
 739.75    0.0000068008
 740.00    0.0000067996
 740.25    0.0000067926
 740.50    0.0000067856
 740.75    0.0000067785
 741.00    0.0000067715
 741.25    0.0000067682
 741.50    0.0000067649
 741.75    0.0000067617
 742.00    0.0000067584
 742.25    0.0000067638
 742.50    0.0000067691
 742.75    0.0000067744
 743.00    0.0000067798
 743.25    0.0000067737
 743.50    0.0000067676
 743.75    0.0000067615
 744.00    0.0000067554
 744.25    0.0000067630
 744.50    0.0000067705
 744.75    0.0000067781
 745.00    0.0000067856
 745.25    0.0000067770
 745.50    0.0000067684
 745.75    0.0000067598
 746.00    0.0000067512
 746.25    0.0000067516
 746.50    0.0000067520
 746.75    0.0000067524
 747.00    0.0000067528
 747.25    0.0000067682
 747.50    0.0000067836
 747.75    0.0000067990
 748.00    0.0000068144
 748.25    0.0000068136
 748.50    0.0000068128
 748.75    0.0000068120
 749.00    0.0000068112
 749.25    0.0000068072
 749.50    0.0000068032
 749.75    0.0000067992
 750.00    0.0000067952
 750.25    0.0000000000
 750.50    0.0000000000
 750.75    0.0000000000
 751.00    0.0000000000
 751.25    0.0000000000
 751.50    0.0000000000
 751.75    0.0000000000
 752.00    0.0000000000
 752.25    0.0000000000
 752.50    0.0000000000
 752.75    0.0000000000
 753.00    0.0000000000
 753.25    0.0000000000
 753.50    0.0000000000
 753.75    0.0000000000
 754.00    0.0000000000
 754.25    0.0000000000
 754.50    0.0000000000
 754.75    0.0000000000
 755.00    0.0000000000
 755.25    0.0000000000
 755.50    0.0000000000
 755.75    0.0000000000
 756.00    0.0000000000
 756.25    0.0000000000
 756.50    0.0000000000
 756.75    0.0000000000
 757.00    0.0000000000
 757.25    0.0000000000
 757.50    0.0000000000
 757.75    0.0000000000
 758.00    0.0000000000
 758.25    0.0000000000
 758.50    0.0000000000
 758.75    0.0000000000
 759.00    0.0000000000
 759.25    0.0000000000
 759.50    0.0000000000
 759.75    0.0000000000
 760.00    0.0000000000
 760.25    0.0000000000
 760.50    0.0000000000
 760.75    0.0000000000
 761.00    0.0000000000
 761.25    0.0000000000
 761.50    0.0000000000
 761.75    0.0000000000
 762.00    0.0000000000
 762.25    0.0000000000
 762.50    0.0000000000
 762.75    0.0000000000
 763.00    0.0000000000
 763.25    0.0000000000
 763.50    0.0000000000
 763.75    0.0000000000
 764.00    0.0000000000
 764.25    0.0000000000
 764.50    0.0000000000
 764.75    0.0000000000
 765.00    0.0000000000
 765.25    0.0000000000
 765.50    0.0000000000
 765.75    0.0000000000
 766.00    0.0000000000
 766.25    0.0000000000
 766.50    0.0000000000
 766.75    0.0000000000
 767.00    0.0000000000
 767.25    0.0000000000
 767.50    0.0000000000
 767.75    0.0000000000
 768.00    0.0000000000
 768.25    0.0000000000
 768.50    0.0000000000
 768.75    0.0000000000
 769.00    0.0000000000
 769.25    0.0000000000
 769.50    0.0000000000
 769.75    0.0000000000
 770.00    0.0000000000
 770.25    0.0000000000
 770.50    0.0000000000
 770.75    0.0000000000
 771.00    0.0000000000
 771.25    0.0000000000
 771.50    0.0000000000
 771.75    0.0000000000
 772.00    0.0000000000
 772.25    0.0000000000
 772.50    0.0000000000
 772.75    0.0000000000
 773.00    0.0000000000
 773.25    0.0000000000
 773.50    0.0000000000
 773.75    0.0000000000
 774.00    0.0000000000
 774.25    0.0000000000
 774.50    0.0000000000
 774.75    0.0000000000
 775.00    0.0000000000
 775.25    0.0000000000
 775.50    0.0000000000
 775.75    0.0000000000
 776.00    0.0000000000
 776.25    0.0000000000
 776.50    0.0000000000
 776.75    0.0000000000
 777.00    0.0000000000
 777.25    0.0000000000
 777.50    0.0000000000
 777.75    0.0000000000
 778.00    0.0000000000
 778.25    0.0000000000
 778.50    0.0000000000
 778.75    0.0000000000
 779.00    0.0000000000
 779.25    0.0000000000
 779.50    0.0000000000
 779.75    0.0000000000
 780.00    0.0000000000
 780.25    0.0000000000
 780.50    0.0000000000
 780.75    0.0000000000
 781.00    0.0000000000
 781.25    0.0000000000
 781.50    0.0000000000
 781.75    0.0000000000
 782.00    0.0000000000
 782.25    0.0000000000
 782.50    0.0000000000
 782.75    0.0000000000
 783.00    0.0000000000
 783.25    0.0000000000
 783.50    0.0000000000
 783.75    0.0000000000
 784.00    0.0000000000
 784.25    0.0000000000
 784.50    0.0000000000
 784.75    0.0000000000
 785.00    0.0000000000
 785.25    0.0000000000
 785.50    0.0000000000
 785.75    0.0000000000
 786.00    0.0000000000
 786.25    0.0000000000
 786.50    0.0000000000
 786.75    0.0000000000
 787.00    0.0000000000
 787.25    0.0000000000
 787.50    0.0000000000
 787.75    0.0000000000
 788.00    0.0000000000
 788.25    0.0000000000
 788.50    0.0000000000
 788.75    0.0000000000
 789.00    0.0000000000
 789.25    0.0000000000
 789.50    0.0000000000
 789.75    0.0000000000
 790.00    0.0000000000
 790.25    0.0000000000
 790.50    0.0000000000
 790.75    0.0000000000
 791.00    0.0000000000
 791.25    0.0000000000
 791.50    0.0000000000
 791.75    0.0000000000
 792.00    0.0000000000
 792.25    0.0000000000
 792.50    0.0000000000
 792.75    0.0000000000
 793.00    0.0000000000
 793.25    0.0000000000
 793.50    0.0000000000
 793.75    0.0000000000
 794.00    0.0000000000
 794.25    0.0000000000
 794.50    0.0000000000
 794.75    0.0000000000
 795.00    0.0000000000
 795.25    0.0000000000
 795.50    0.0000000000
 795.75    0.0000000000
 796.00    0.0000000000
 796.25    0.0000000000
 796.50    0.0000000000
 796.75    0.0000000000
 797.00    0.0000000000
 797.25    0.0000000000
 797.50    0.0000000000
 797.75    0.0000000000
 798.00    0.0000000000
 798.25    0.0000000000
 798.50    0.0000000000
 798.75    0.0000000000
 799.00    0.0000000000
 799.25    0.0000000000
 799.50    0.0000000000
 799.75    0.0000000000
 800.00    0.0000000000
 800.25    0.0000000000
 800.50    0.0000000000
 800.75    0.0000000000
 801.00    0.0000000000
 801.25    0.0000000000
 801.50    0.0000000000
 801.75    0.0000000000
 802.00    0.0000000000
 802.25    0.0000000000
 802.50    0.0000000000
 802.75    0.0000000000
 803.00    0.0000000000
 803.25    0.0000000000
 803.50    0.0000000000
 803.75    0.0000000000
 804.00    0.0000000000
 804.25    0.0000000000
 804.50    0.0000000000
 804.75    0.0000000000
 805.00    0.0000000000
 805.25    0.0000000000
 805.50    0.0000000000
 805.75    0.0000000000
 806.00    0.0000000000
 806.25    0.0000000000
 806.50    0.0000000000
 806.75    0.0000000000
 807.00    0.0000000000
 807.25    0.0000000000
 807.50    0.0000000000
 807.75    0.0000000000
 808.00    0.0000000000
 808.25    0.0000000000
 808.50    0.0000000000
 808.75    0.0000000000
 809.00    0.0000000000
 809.25    0.0000000000
 809.50    0.0000000000
 809.75    0.0000000000
 810.00    0.0000000000
 810.25    0.0000000000
 810.50    0.0000000000
 810.75    0.0000000000
 811.00    0.0000000000
 811.25    0.0000000000
 811.50    0.0000000000
 811.75    0.0000000000
 812.00    0.0000000000
 812.25    0.0000000000
 812.50    0.0000000000
 812.75    0.0000000000
 813.00    0.0000000000
 813.25    0.0000000000
 813.50    0.0000000000
 813.75    0.0000000000
 814.00    0.0000000000
 814.25    0.0000000000
 814.50    0.0000000000
 814.75    0.0000000000
 815.00    0.0000000000
 815.25    0.0000000000
 815.50    0.0000000000
 815.75    0.0000000000
 816.00    0.0000000000
 816.25    0.0000000000
 816.50    0.0000000000
 816.75    0.0000000000
 817.00    0.0000000000
 817.25    0.0000000000
 817.50    0.0000000000
 817.75    0.0000000000
 818.00    0.0000000000
 818.25    0.0000000000
 818.50    0.0000000000
 818.75    0.0000000000
 819.00    0.0000000000
 819.25    0.0000000000
 819.50    0.0000000000
 819.75    0.0000000000
 820.00    0.0000000000
 820.25    0.0000000000
 820.50    0.0000000000
 820.75    0.0000000000
 821.00    0.0000000000
 821.25    0.0000000000
 821.50    0.0000000000
 821.75    0.0000000000
 822.00    0.0000000000
 822.25    0.0000000000
 822.50    0.0000000000
 822.75    0.0000000000
 823.00    0.0000000000
 823.25    0.0000000000
 823.50    0.0000000000
 823.75    0.0000000000
 824.00    0.0000000000
 824.25    0.0000000000
 824.50    0.0000000000
 824.75    0.0000000000
 825.00    0.0000000000
 825.25    0.0000000000
 825.50    0.0000000000
 825.75    0.0000000000
 826.00    0.0000000000
 826.25    0.0000000000
 826.50    0.0000000000
 826.75    0.0000000000
 827.00    0.0000000000
 827.25    0.0000000000
 827.50    0.0000000000
 827.75    0.0000000000
 828.00    0.0000000000
 828.25    0.0000000000
 828.50    0.0000000000
 828.75    0.0000000000
 829.00    0.0000000000
 829.25    0.0000000000
 829.50    0.0000000000
 829.75    0.0000000000
 830.00    0.0000000000
 830.25    0.0000000000
 830.50    0.0000000000
 830.75    0.0000000000
 831.00    0.0000000000
 831.25    0.0000000000
 831.50    0.0000000000
 831.75    0.0000000000
 832.00    0.0000000000
 832.25    0.0000000000
 832.50    0.0000000000
 832.75    0.0000000000
 833.00    0.0000000000
 833.25    0.0000000000
 833.50    0.0000000000
 833.75    0.0000000000
 834.00    0.0000000000
 834.25    0.0000000000
 834.50    0.0000000000
 834.75    0.0000000000
 835.00    0.0000000000
 835.25    0.0000000000
 835.50    0.0000000000
 835.75    0.0000000000
 836.00    0.0000000000
 836.25    0.0000000000
 836.50    0.0000000000
 836.75    0.0000000000
 837.00    0.0000000000
 837.25    0.0000000000
 837.50    0.0000000000
 837.75    0.0000000000
 838.00    0.0000000000
 838.25    0.0000000000
 838.50    0.0000000000
 838.75    0.0000000000
 839.00    0.0000000000
 839.25    0.0000000000
 839.50    0.0000000000
 839.75    0.0000000000
 840.00    0.0000000000
 840.25    0.0000000000
 840.50    0.0000000000
 840.75    0.0000000000
 841.00    0.0000000000
 841.25    0.0000000000
 841.50    0.0000000000
 841.75    0.0000000000
 842.00    0.0000000000
 842.25    0.0000000000
 842.50    0.0000000000
 842.75    0.0000000000
 843.00    0.0000000000
 843.25    0.0000000000
 843.50    0.0000000000
 843.75    0.0000000000
 844.00    0.0000000000
 844.25    0.0000000000
 844.50    0.0000000000
 844.75    0.0000000000
 845.00    0.0000000000
 845.25    0.0000000000
 845.50    0.0000000000
 845.75    0.0000000000
 846.00    0.0000000000
 846.25    0.0000000000
 846.50    0.0000000000
 846.75    0.0000000000
 847.00    0.0000000000
 847.25    0.0000000000
 847.50    0.0000000000
 847.75    0.0000000000
 848.00    0.0000000000
 848.25    0.0000000000
 848.50    0.0000000000
 848.75    0.0000000000
 849.00    0.0000000000
 849.25    0.0000000000
 849.50    0.0000000000
 849.75    0.0000000000
 850.00    0.0000000000
 850.25    0.0000000000
 850.50    0.0000000000
 850.75    0.0000000000
 851.00    0.0000000000
 851.25    0.0000000000
 851.50    0.0000000000
 851.75    0.0000000000
 852.00    0.0000000000
 852.25    0.0000000000
 852.50    0.0000000000
 852.75    0.0000000000
 853.00    0.0000000000
 853.25    0.0000000000
 853.50    0.0000000000
 853.75    0.0000000000
 854.00    0.0000000000
 854.25    0.0000000000
 854.50    0.0000000000
 854.75    0.0000000000
 855.00    0.0000000000
 855.25    0.0000000000
 855.50    0.0000000000
 855.75    0.0000000000
 856.00    0.0000000000
 856.25    0.0000000000
 856.50    0.0000000000
 856.75    0.0000000000
 857.00    0.0000000000
 857.25    0.0000000000
 857.50    0.0000000000
 857.75    0.0000000000
 858.00    0.0000000000
 858.25    0.0000000000
 858.50    0.0000000000
 858.75    0.0000000000
 859.00    0.0000000000
 859.25    0.0000000000
 859.50    0.0000000000
 859.75    0.0000000000
 860.00    0.0000000000
 860.25    0.0000000000
 860.50    0.0000000000
 860.75    0.0000000000
 861.00    0.0000000000
 861.25    0.0000000000
 861.50    0.0000000000
 861.75    0.0000000000
 862.00    0.0000000000
 862.25    0.0000000000
 862.50    0.0000000000
 862.75    0.0000000000
 863.00    0.0000000000
 863.25    0.0000000000
 863.50    0.0000000000
 863.75    0.0000000000
 864.00    0.0000000000
 864.25    0.0000000000
 864.50    0.0000000000
 864.75    0.0000000000
 865.00    0.0000000000
 865.25    0.0000000000
 865.50    0.0000000000
 865.75    0.0000000000
 866.00    0.0000000000
 866.25    0.0000000000
 866.50    0.0000000000
 866.75    0.0000000000
 867.00    0.0000000000
 867.25    0.0000000000
 867.50    0.0000000000
 867.75    0.0000000000
 868.00    0.0000000000
 868.25    0.0000000000
 868.50    0.0000000000
 868.75    0.0000000000
 869.00    0.0000000000
 869.25    0.0000000000
 869.50    0.0000000000
 869.75    0.0000000000
 870.00    0.0000000000
 870.25    0.0000000000
 870.50    0.0000000000
 870.75    0.0000000000
 871.00    0.0000000000
 871.25    0.0000000000
 871.50    0.0000000000
 871.75    0.0000000000
 872.00    0.0000000000
 872.25    0.0000000000
 872.50    0.0000000000
 872.75    0.0000000000
 873.00    0.0000000000
 873.25    0.0000000000
 873.50    0.0000000000
 873.75    0.0000000000
 874.00    0.0000000000
 874.25    0.0000000000
 874.50    0.0000000000
 874.75    0.0000000000
 875.00    0.0000000000
 875.25    0.0000000000
 875.50    0.0000000000
 875.75    0.0000000000
 876.00    0.0000000000
 876.25    0.0000000000
 876.50    0.0000000000
 876.75    0.0000000000
 877.00    0.0000000000
 877.25    0.0000000000
 877.50    0.0000000000
 877.75    0.0000000000
 878.00    0.0000000000
 878.25    0.0000000000
 878.50    0.0000000000
 878.75    0.0000000000
 879.00    0.0000000000
 879.25    0.0000000000
 879.50    0.0000000000
 879.75    0.0000000000
 880.00    0.0000000000
 880.25    0.0000000000
 880.50    0.0000000000
 880.75    0.0000000000
 881.00    0.0000000000
 881.25    0.0000000000
 881.50    0.0000000000
 881.75    0.0000000000
 882.00    0.0000000000
 882.25    0.0000000000
 882.50    0.0000000000
 882.75    0.0000000000
 883.00    0.0000000000
 883.25    0.0000000000
 883.50    0.0000000000
 883.75    0.0000000000
 884.00    0.0000000000
 884.25    0.0000000000
 884.50    0.0000000000
 884.75    0.0000000000
 885.00    0.0000000000
 885.25    0.0000000000
 885.50    0.0000000000
 885.75    0.0000000000
 886.00    0.0000000000
 886.25    0.0000000000
 886.50    0.0000000000
 886.75    0.0000000000
 887.00    0.0000000000
 887.25    0.0000000000
 887.50    0.0000000000
 887.75    0.0000000000
 888.00    0.0000000000
 888.25    0.0000000000
 888.50    0.0000000000
 888.75    0.0000000000
 889.00    0.0000000000
 889.25    0.0000000000
 889.50    0.0000000000
 889.75    0.0000000000
 890.00    0.0000000000
 890.25    0.0000000000
 890.50    0.0000000000
 890.75    0.0000000000
 891.00    0.0000000000
 891.25    0.0000000000
 891.50    0.0000000000
 891.75    0.0000000000
 892.00    0.0000000000
 892.25    0.0000000000
 892.50    0.0000000000
 892.75    0.0000000000
 893.00    0.0000000000
 893.25    0.0000000000
 893.50    0.0000000000
 893.75    0.0000000000
 894.00    0.0000000000
 894.25    0.0000000000
 894.50    0.0000000000
 894.75    0.0000000000
 895.00    0.0000000000
 895.25    0.0000000000
 895.50    0.0000000000
 895.75    0.0000000000
 896.00    0.0000000000
 896.25    0.0000000000
 896.50    0.0000000000
 896.75    0.0000000000
 897.00    0.0000000000
 897.25    0.0000000000
 897.50    0.0000000000
 897.75    0.0000000000
 898.00    0.0000000000
 898.25    0.0000000000
 898.50    0.0000000000
 898.75    0.0000000000
 899.00    0.0000000000
 899.25    0.0000000000
 899.50    0.0000000000
 899.75    0.0000000000
 900.00    0.0000000000
 900.25    0.0000000000
 900.50    0.0000000000
 900.75    0.0000000000
 901.00    0.0000000000
 901.25    0.0000000000
 901.50    0.0000000000
 901.75    0.0000000000
 902.00    0.0000000000
 902.25    0.0000000000
 902.50    0.0000000000
 902.75    0.0000000000
 903.00    0.0000000000
 903.25    0.0000000000
 903.50    0.0000000000
 903.75    0.0000000000
 904.00    0.0000000000
 904.25    0.0000000000
 904.50    0.0000000000
 904.75    0.0000000000
 905.00    0.0000000000
 905.25    0.0000000000
 905.50    0.0000000000
 905.75    0.0000000000
 906.00    0.0000000000
 906.25    0.0000000000
 906.50    0.0000000000
 906.75    0.0000000000
 907.00    0.0000000000
 907.25    0.0000000000
 907.50    0.0000000000
 907.75    0.0000000000
 908.00    0.0000000000
 908.25    0.0000000000
 908.50    0.0000000000
 908.75    0.0000000000
 909.00    0.0000000000
 909.25    0.0000000000
 909.50    0.0000000000
 909.75    0.0000000000
 910.00    0.0000000000
 910.25    0.0000000000
 910.50    0.0000000000
 910.75    0.0000000000
 911.00    0.0000000000
 911.25    0.0000000000
 911.50    0.0000000000
 911.75    0.0000000000
 912.00    0.0000000000
 912.25    0.0000000000
 912.50    0.0000000000
 912.75    0.0000000000
 913.00    0.0000000000
 913.25    0.0000000000
 913.50    0.0000000000
 913.75    0.0000000000
 914.00    0.0000000000
 914.25    0.0000000000
 914.50    0.0000000000
 914.75    0.0000000000
 915.00    0.0000000000
 915.25    0.0000000000
 915.50    0.0000000000
 915.75    0.0000000000
 916.00    0.0000000000
 916.25    0.0000000000
 916.50    0.0000000000
 916.75    0.0000000000
 917.00    0.0000000000
 917.25    0.0000000000
 917.50    0.0000000000
 917.75    0.0000000000
 918.00    0.0000000000
 918.25    0.0000000000
 918.50    0.0000000000
 918.75    0.0000000000
 919.00    0.0000000000
 919.25    0.0000000000
 919.50    0.0000000000
 919.75    0.0000000000
 920.00    0.0000000000
 920.25    0.0000000000
 920.50    0.0000000000
 920.75    0.0000000000
 921.00    0.0000000000
 921.25    0.0000000000
 921.50    0.0000000000
 921.75    0.0000000000
 922.00    0.0000000000
 922.25    0.0000000000
 922.50    0.0000000000
 922.75    0.0000000000
 923.00    0.0000000000
 923.25    0.0000000000
 923.50    0.0000000000
 923.75    0.0000000000
 924.00    0.0000000000
 924.25    0.0000000000
 924.50    0.0000000000
 924.75    0.0000000000
 925.00    0.0000000000
 925.25    0.0000000000
 925.50    0.0000000000
 925.75    0.0000000000
 926.00    0.0000000000
 926.25    0.0000000000
 926.50    0.0000000000
 926.75    0.0000000000
 927.00    0.0000000000
 927.25    0.0000000000
 927.50    0.0000000000
 927.75    0.0000000000
 928.00    0.0000000000
 928.25    0.0000000000
 928.50    0.0000000000
 928.75    0.0000000000
 929.00    0.0000000000
 929.25    0.0000000000
 929.50    0.0000000000
 929.75    0.0000000000
 930.00    0.0000000000
 930.25    0.0000000000
 930.50    0.0000000000
 930.75    0.0000000000
 931.00    0.0000000000
 931.25    0.0000000000
 931.50    0.0000000000
 931.75    0.0000000000
 932.00    0.0000000000
 932.25    0.0000000000
 932.50    0.0000000000
 932.75    0.0000000000
 933.00    0.0000000000
 933.25    0.0000000000
 933.50    0.0000000000
 933.75    0.0000000000
 934.00    0.0000000000
 934.25    0.0000000000
 934.50    0.0000000000
 934.75    0.0000000000
 935.00    0.0000000000
 935.25    0.0000000000
 935.50    0.0000000000
 935.75    0.0000000000
 936.00    0.0000000000
 936.25    0.0000000000
 936.50    0.0000000000
 936.75    0.0000000000
 937.00    0.0000000000
 937.25    0.0000000000
 937.50    0.0000000000
 937.75    0.0000000000
 938.00    0.0000000000
 938.25    0.0000000000
 938.50    0.0000000000
 938.75    0.0000000000
 939.00    0.0000000000
 939.25    0.0000000000
 939.50    0.0000000000
 939.75    0.0000000000
 940.00    0.0000000000
 940.25    0.0000000000
 940.50    0.0000000000
 940.75    0.0000000000
 941.00    0.0000000000
 941.25    0.0000000000
 941.50    0.0000000000
 941.75    0.0000000000
 942.00    0.0000000000
 942.25    0.0000000000
 942.50    0.0000000000
 942.75    0.0000000000
 943.00    0.0000000000
 943.25    0.0000000000
 943.50    0.0000000000
 943.75    0.0000000000
 944.00    0.0000000000
 944.25    0.0000000000
 944.50    0.0000000000
 944.75    0.0000000000
 945.00    0.0000000000
 945.25    0.0000000000
 945.50    0.0000000000
 945.75    0.0000000000
 946.00    0.0000000000
 946.25    0.0000000000
 946.50    0.0000000000
 946.75    0.0000000000
 947.00    0.0000000000
 947.25    0.0000000000
 947.50    0.0000000000
 947.75    0.0000000000
 948.00    0.0000000000
 948.25    0.0000000000
 948.50    0.0000000000
 948.75    0.0000000000
 949.00    0.0000000000
 949.25    0.0000000000
 949.50    0.0000000000
 949.75    0.0000000000
 950.00    0.0000000000
 950.25    0.0000000000
 950.50    0.0000000000
 950.75    0.0000000000
 951.00    0.0000000000
 951.25    0.0000000000
 951.50    0.0000000000
 951.75    0.0000000000
 952.00    0.0000000000
 952.25    0.0000000000
 952.50    0.0000000000
 952.75    0.0000000000
 953.00    0.0000000000
 953.25    0.0000000000
 953.50    0.0000000000
 953.75    0.0000000000
 954.00    0.0000000000
 954.25    0.0000000000
 954.50    0.0000000000
 954.75    0.0000000000
 955.00    0.0000000000
 955.25    0.0000000000
 955.50    0.0000000000
 955.75    0.0000000000
 956.00    0.0000000000
 956.25    0.0000000000
 956.50    0.0000000000
 956.75    0.0000000000
 957.00    0.0000000000
 957.25    0.0000000000
 957.50    0.0000000000
 957.75    0.0000000000
 958.00    0.0000000000
 958.25    0.0000000000
 958.50    0.0000000000
 958.75    0.0000000000
 959.00    0.0000000000
 959.25    0.0000000000
 959.50    0.0000000000
 959.75    0.0000000000
 960.00    0.0000000000
 960.25    0.0000000000
 960.50    0.0000000000
 960.75    0.0000000000
 961.00    0.0000000000
 961.25    0.0000000000
 961.50    0.0000000000
 961.75    0.0000000000
 962.00    0.0000000000
 962.25    0.0000000000
 962.50    0.0000000000
 962.75    0.0000000000
 963.00    0.0000000000
 963.25    0.0000000000
 963.50    0.0000000000
 963.75    0.0000000000
 964.00    0.0000000000
 964.25    0.0000000000
 964.50    0.0000000000
 964.75    0.0000000000
 965.00    0.0000000000
 965.25    0.0000000000
 965.50    0.0000000000
 965.75    0.0000000000
 966.00    0.0000000000
 966.25    0.0000000000
 966.50    0.0000000000
 966.75    0.0000000000
 967.00    0.0000000000
 967.25    0.0000000000
 967.50    0.0000000000
 967.75    0.0000000000
 968.00    0.0000000000
 968.25    0.0000000000
 968.50    0.0000000000
 968.75    0.0000000000
 969.00    0.0000000000
 969.25    0.0000000000
 969.50    0.0000000000
 969.75    0.0000000000
 970.00    0.0000000000
 970.25    0.0000000000
 970.50    0.0000000000
 970.75    0.0000000000
 971.00    0.0000000000
 971.25    0.0000000000
 971.50    0.0000000000
 971.75    0.0000000000
 972.00    0.0000000000
 972.25    0.0000000000
 972.50    0.0000000000
 972.75    0.0000000000
 973.00    0.0000000000
 973.25    0.0000000000
 973.50    0.0000000000
 973.75    0.0000000000
 974.00    0.0000000000
 974.25    0.0000000000
 974.50    0.0000000000
 974.75    0.0000000000
 975.00    0.0000000000
 975.25    0.0000000000
 975.50    0.0000000000
 975.75    0.0000000000
 976.00    0.0000000000
 976.25    0.0000000000
 976.50    0.0000000000
 976.75    0.0000000000
 977.00    0.0000000000
 977.25    0.0000000000
 977.50    0.0000000000
 977.75    0.0000000000
 978.00    0.0000000000
 978.25    0.0000000000
 978.50    0.0000000000
 978.75    0.0000000000
 979.00    0.0000000000
 979.25    0.0000000000
 979.50    0.0000000000
 979.75    0.0000000000
 980.00    0.0000000000
 980.25    0.0000000000
 980.50    0.0000000000
 980.75    0.0000000000
 981.00    0.0000000000
 981.25    0.0000000000
 981.50    0.0000000000
 981.75    0.0000000000
 982.00    0.0000000000
 982.25    0.0000000000
 982.50    0.0000000000
 982.75    0.0000000000
 983.00    0.0000000000
 983.25    0.0000000000
 983.50    0.0000000000
 983.75    0.0000000000
 984.00    0.0000000000
 984.25    0.0000000000
 984.50    0.0000000000
 984.75    0.0000000000
 985.00    0.0000000000
 985.25    0.0000000000
 985.50    0.0000000000
 985.75    0.0000000000
 986.00    0.0000000000
 986.25    0.0000000000
 986.50    0.0000000000
 986.75    0.0000000000
 987.00    0.0000000000
 987.25    0.0000000000
 987.50    0.0000000000
 987.75    0.0000000000
 988.00    0.0000000000
 988.25    0.0000000000
 988.50    0.0000000000
 988.75    0.0000000000
 989.00    0.0000000000
 989.25    0.0000000000
 989.50    0.0000000000
 989.75    0.0000000000
 990.00    0.0000000000
 990.25    0.0000000000
 990.50    0.0000000000
 990.75    0.0000000000
 991.00    0.0000000000
 991.25    0.0000000000
 991.50    0.0000000000
 991.75    0.0000000000
 992.00    0.0000000000
 992.25    0.0000000000
 992.50    0.0000000000
 992.75    0.0000000000
 993.00    0.0000000000
 993.25    0.0000000000
 993.50    0.0000000000
 993.75    0.0000000000
 994.00    0.0000000000
 994.25    0.0000000000
 994.50    0.0000000000
 994.75    0.0000000000
 995.00    0.0000000000
 995.25    0.0000000000
 995.50    0.0000000000
 995.75    0.0000000000
 996.00    0.0000000000
 996.25    0.0000000000
 996.50    0.0000000000
 996.75    0.0000000000
 997.00    0.0000000000
 997.25    0.0000000000
 997.50    0.0000000000
 997.75    0.0000000000
 998.00    0.0000000000
 998.25    0.0000000000
 998.50    0.0000000000
 998.75    0.0000000000
 999.00    0.0000000000
 999.25    0.0000000000
 999.50    0.0000000000
 999.75    0.0000000000
1000.00    0.0000000000
1000.25    0.0000000000
1000.50    0.0000000000
1000.75    0.0000000000
1001.00    0.0000000000
1001.25    0.0000000000
1001.50    0.0000000000
1001.75    0.0000000000
1002.00    0.0000000000
1002.25    0.0000000000
1002.50    0.0000000000
1002.75    0.0000000000
1003.00    0.0000000000
1003.25    0.0000000000
1003.50    0.0000000000
1003.75    0.0000000000
1004.00    0.0000000000
1004.25    0.0000000000
1004.50    0.0000000000
1004.75    0.0000000000
1005.00    0.0000000000
1005.25    0.0000000000
1005.50    0.0000000000
1005.75    0.0000000000
1006.00    0.0000000000
1006.25    0.0000000000
1006.50    0.0000000000
1006.75    0.0000000000
1007.00    0.0000000000
1007.25    0.0000000000
1007.50    0.0000000000
1007.75    0.0000000000
1008.00    0.0000000000
1008.25    0.0000000000
1008.50    0.0000000000
1008.75    0.0000000000
1009.00    0.0000000000
1009.25    0.0000000000
1009.50    0.0000000000
1009.75    0.0000000000
1010.00    0.0000000000
1010.25    0.0000000000
1010.50    0.0000000000
1010.75    0.0000000000
1011.00    0.0000000000
1011.25    0.0000000000
1011.50    0.0000000000
1011.75    0.0000000000
1012.00    0.0000000000
1012.25    0.0000000000
1012.50    0.0000000000
1012.75    0.0000000000
1013.00    0.0000000000
1013.25    0.0000000000
1013.50    0.0000000000
1013.75    0.0000000000
1014.00    0.0000000000
1014.25    0.0000000000
1014.50    0.0000000000
1014.75    0.0000000000
1015.00    0.0000000000
1015.25    0.0000000000
1015.50    0.0000000000
1015.75    0.0000000000
1016.00    0.0000000000
1016.25    0.0000000000
1016.50    0.0000000000
1016.75    0.0000000000
1017.00    0.0000000000
1017.25    0.0000000000
1017.50    0.0000000000
1017.75    0.0000000000
1018.00    0.0000000000
1018.25    0.0000000000
1018.50    0.0000000000
1018.75    0.0000000000
1019.00    0.0000000000
1019.25    0.0000000000
1019.50    0.0000000000
1019.75    0.0000000000
1020.00    0.0000000000
1020.25    0.0000000000
1020.50    0.0000000000
1020.75    0.0000000000
1021.00    0.0000000000
1021.25    0.0000000000
1021.50    0.0000000000
1021.75    0.0000000000
1022.00    0.0000000000
1022.25    0.0000000000
1022.50    0.0000000000
1022.75    0.0000000000
1023.00    0.0000000000
1023.25    0.0000000000
1023.50    0.0000000000
1023.75    0.0000000000
1024.00    0.0000000000
1024.25    0.0000000000
1024.50    0.0000000000
1024.75    0.0000000000
1025.00    0.0000000000
1025.25    0.0000000000
1025.50    0.0000000000
1025.75    0.0000000000
1026.00    0.0000000000
1026.25    0.0000000000
1026.50    0.0000000000
1026.75    0.0000000000
1027.00    0.0000000000
1027.25    0.0000000000
1027.50    0.0000000000
1027.75    0.0000000000
1028.00    0.0000000000
1028.25    0.0000000000
1028.50    0.0000000000
1028.75    0.0000000000
1029.00    0.0000000000
1029.25    0.0000000000
1029.50    0.0000000000
1029.75    0.0000000000
1030.00    0.0000000000
1030.25    0.0000000000
1030.50    0.0000000000
1030.75    0.0000000000
1031.00    0.0000000000
1031.25    0.0000000000
1031.50    0.0000000000
1031.75    0.0000000000
1032.00    0.0000000000
1032.25    0.0000000000
1032.50    0.0000000000
1032.75    0.0000000000
1033.00    0.0000000000
1033.25    0.0000000000
1033.50    0.0000000000
1033.75    0.0000000000
1034.00    0.0000000000
1034.25    0.0000000000
1034.50    0.0000000000
1034.75    0.0000000000
1035.00    0.0000000000
1035.25    0.0000000000
1035.50    0.0000000000
1035.75    0.0000000000
1036.00    0.0000000000
1036.25    0.0000000000
1036.50    0.0000000000
1036.75    0.0000000000
1037.00    0.0000000000
1037.25    0.0000000000
1037.50    0.0000000000
1037.75    0.0000000000
1038.00    0.0000000000
1038.25    0.0000000000
1038.50    0.0000000000
1038.75    0.0000000000
1039.00    0.0000000000
1039.25    0.0000000000
1039.50    0.0000000000
1039.75    0.0000000000
1040.00    0.0000000000
1040.25    0.0000000000
1040.50    0.0000000000
1040.75    0.0000000000
1041.00    0.0000000000
1041.25    0.0000000000
1041.50    0.0000000000
1041.75    0.0000000000
1042.00    0.0000000000
1042.25    0.0000000000
1042.50    0.0000000000
1042.75    0.0000000000
1043.00    0.0000000000
1043.25    0.0000000000
1043.50    0.0000000000
1043.75    0.0000000000
1044.00    0.0000000000
1044.25    0.0000000000
1044.50    0.0000000000
1044.75    0.0000000000
1045.00    0.0000000000
1045.25    0.0000000000
1045.50    0.0000000000
1045.75    0.0000000000
1046.00    0.0000000000
1046.25    0.0000000000
1046.50    0.0000000000
1046.75    0.0000000000
1047.00    0.0000000000
1047.25    0.0000000000
1047.50    0.0000000000
1047.75    0.0000000000
1048.00    0.0000000000
1048.25    0.0000000000
1048.50    0.0000000000
1048.75    0.0000000000
1049.00    0.0000000000
1049.25    0.0000000000
1049.50    0.0000000000
1049.75    0.0000000000
1050.00    0.0000000000
1050.25    0.0000000000
1050.50    0.0000000000
1050.75    0.0000000000
1051.00    0.0000000000
1051.25    0.0000000000
1051.50    0.0000000000
1051.75    0.0000000000
1052.00    0.0000000000
1052.25    0.0000000000
1052.50    0.0000000000
1052.75    0.0000000000
1053.00    0.0000000000
1053.25    0.0000000000
1053.50    0.0000000000
1053.75    0.0000000000
1054.00    0.0000000000
1054.25    0.0000000000
1054.50    0.0000000000
1054.75    0.0000000000
1055.00    0.0000000000
1055.25    0.0000000000
1055.50    0.0000000000
1055.75    0.0000000000
1056.00    0.0000000000
1056.25    0.0000000000
1056.50    0.0000000000
1056.75    0.0000000000
1057.00    0.0000000000
1057.25    0.0000000000
1057.50    0.0000000000
1057.75    0.0000000000
1058.00    0.0000000000
1058.25    0.0000000000
1058.50    0.0000000000
1058.75    0.0000000000
1059.00    0.0000000000
1059.25    0.0000000000
1059.50    0.0000000000
1059.75    0.0000000000
1060.00    0.0000000000
1060.25    0.0000000000
1060.50    0.0000000000
1060.75    0.0000000000
1061.00    0.0000000000
1061.25    0.0000000000
1061.50    0.0000000000
1061.75    0.0000000000
1062.00    0.0000000000
1062.25    0.0000000000
1062.50    0.0000000000
1062.75    0.0000000000
1063.00    0.0000000000
1063.25    0.0000000000
1063.50    0.0000000000
1063.75    0.0000000000
1064.00    0.0000000000
1064.25    0.0000000000
1064.50    0.0000000000
1064.75    0.0000000000
1065.00    0.0000000000
1065.25    0.0000000000
1065.50    0.0000000000
1065.75    0.0000000000
1066.00    0.0000000000
1066.25    0.0000000000
1066.50    0.0000000000
1066.75    0.0000000000
1067.00    0.0000000000
1067.25    0.0000000000
1067.50    0.0000000000
1067.75    0.0000000000
1068.00    0.0000000000
1068.25    0.0000000000
1068.50    0.0000000000
1068.75    0.0000000000
1069.00    0.0000000000
1069.25    0.0000000000
1069.50    0.0000000000
1069.75    0.0000000000
1070.00    0.0000000000
1070.25    0.0000000000
1070.50    0.0000000000
1070.75    0.0000000000
1071.00    0.0000000000
1071.25    0.0000000000
1071.50    0.0000000000
1071.75    0.0000000000
1072.00    0.0000000000
1072.25    0.0000000000
1072.50    0.0000000000
1072.75    0.0000000000
1073.00    0.0000000000
1073.25    0.0000000000
1073.50    0.0000000000
1073.75    0.0000000000
1074.00    0.0000000000
1074.25    0.0000000000
1074.50    0.0000000000
1074.75    0.0000000000
1075.00    0.0000000000
1075.25    0.0000000000
1075.50    0.0000000000
1075.75    0.0000000000
1076.00    0.0000000000
1076.25    0.0000000000
1076.50    0.0000000000
1076.75    0.0000000000
1077.00    0.0000000000
1077.25    0.0000000000
1077.50    0.0000000000
1077.75    0.0000000000
1078.00    0.0000000000
1078.25    0.0000000000
1078.50    0.0000000000
1078.75    0.0000000000
1079.00    0.0000000000
1079.25    0.0000000000
1079.50    0.0000000000
1079.75    0.0000000000
1080.00    0.0000000000
1080.25    0.0000000000
1080.50    0.0000000000
1080.75    0.0000000000
1081.00    0.0000000000
1081.25    0.0000000000
1081.50    0.0000000000
1081.75    0.0000000000
1082.00    0.0000000000
1082.25    0.0000000000
1082.50    0.0000000000
1082.75    0.0000000000
1083.00    0.0000000000
1083.25    0.0000000000
1083.50    0.0000000000
1083.75    0.0000000000
1084.00    0.0000000000
1084.25    0.0000000000
1084.50    0.0000000000
1084.75    0.0000000000
1085.00    0.0000000000
1085.25    0.0000000000
1085.50    0.0000000000
1085.75    0.0000000000
1086.00    0.0000000000
1086.25    0.0000000000
1086.50    0.0000000000
1086.75    0.0000000000
1087.00    0.0000000000
1087.25    0.0000000000
1087.50    0.0000000000
1087.75    0.0000000000
1088.00    0.0000000000
1088.25    0.0000000000
1088.50    0.0000000000
1088.75    0.0000000000
1089.00    0.0000000000
1089.25    0.0000000000
1089.50    0.0000000000
1089.75    0.0000000000
1090.00    0.0000000000
1090.25    0.0000000000
1090.50    0.0000000000
1090.75    0.0000000000
1091.00    0.0000000000
1091.25    0.0000000000
1091.50    0.0000000000
1091.75    0.0000000000
1092.00    0.0000000000
1092.25    0.0000000000
1092.50    0.0000000000
1092.75    0.0000000000
1093.00    0.0000000000
1093.25    0.0000000000
1093.50    0.0000000000
1093.75    0.0000000000
1094.00    0.0000000000
1094.25    0.0000000000
1094.50    0.0000000000
1094.75    0.0000000000
1095.00    0.0000000000
1095.25    0.0000000000
1095.50    0.0000000000
1095.75    0.0000000000
1096.00    0.0000000000
1096.25    0.0000000000
1096.50    0.0000000000
1096.75    0.0000000000
1097.00    0.0000000000
1097.25    0.0000000000
1097.50    0.0000000000
1097.75    0.0000000000
1098.00    0.0000000000
1098.25    0.0000000000
1098.50    0.0000000000
1098.75    0.0000000000
1099.00    0.0000000000
1099.25    0.0000000000
1099.50    0.0000000000
1099.75    0.0000000000
1100.00    0.0000000000
