# file: g_DECam.Euclid.pb
# instrument: Euclid
# system: AB
# xtype: wavelength
# ytype: qe
# description: Full system QE
# comment: SPV2 values from SPV02 branch of the Euclid MDB
# comment: MDB file: EUC_MDB_MISSIONCONFIGURATION-SPV02_2018-06-16T140000.00Z_01.01.xml
# comment: MDB variable: ExternalData.BLA.BlancoDECamTotalTrans.g
# url: http://euclid.esac.esa.int/epdb/db/SPV02/
# reference: Euclid Consortium Mission Performance Document, V 2.0
# xref: 484.0 nm
# filter: g_DECam
# xunit: nm
384.0    0.000
385.0    0.001
386.0    0.001
387.0    0.001
388.0    0.001
389.0    0.001
390.0    0.001
391.0    0.002
392.0    0.002
393.0    0.003
394.0    0.004
395.0    0.012
396.0    0.044
397.0    0.086
398.0    0.120
399.0    0.124
400.0    0.134
401.0    0.140
402.0    0.147
403.0    0.150
404.0    0.151
405.0    0.153
406.0    0.156
407.0    0.159
408.0    0.162
409.0    0.164
410.0    0.166
411.0    0.168
412.0    0.171
413.0    0.174
414.0    0.176
415.0    0.178
416.0    0.184
417.0    0.186
418.0    0.188
419.0    0.190
420.0    0.191
421.0    0.192
422.0    0.194
423.0    0.197
424.0    0.202
425.0    0.204
426.0    0.207
427.0    0.209
428.0    0.212
429.0    0.215
430.0    0.220
431.0    0.221
432.0    0.224
433.0    0.224
434.0    0.228
435.0    0.231
436.0    0.233
437.0    0.233
438.0    0.239
439.0    0.243
440.0    0.243
441.0    0.248
442.0    0.249
443.0    0.251
444.0    0.253
445.0    0.255
446.0    0.257
447.0    0.259
448.0    0.261
449.0    0.262
450.0    0.263
451.0    0.266
452.0    0.267
453.0    0.270
454.0    0.272
455.0    0.274
456.0    0.274
457.0    0.276
458.0    0.277
459.0    0.278
460.0    0.281
461.0    0.282
462.0    0.285
463.0    0.287
464.0    0.289
465.0    0.290
466.0    0.291
467.0    0.293
468.0    0.293
469.0    0.293
470.0    0.294
471.0    0.299
472.0    0.297
473.0    0.299
474.0    0.301
475.0    0.302
476.0    0.305
477.0    0.305
478.0    0.306
479.0    0.306
480.0    0.307
481.0    0.310
482.0    0.311
483.0    0.313
484.0    0.314
485.0    0.314
486.0    0.313
487.0    0.315
488.0    0.317
489.0    0.319
490.0    0.320
491.0    0.323
492.0    0.323
493.0    0.323
494.0    0.323
495.0    0.323
496.0    0.325
497.0    0.326
498.0    0.329
499.0    0.331
500.0    0.330
501.0    0.332
502.0    0.333
503.0    0.335
504.0    0.335
505.0    0.336
506.0    0.337
507.0    0.338
508.0    0.340
509.0    0.341
510.0    0.343
511.0    0.343
512.0    0.342
513.0    0.342
514.0    0.343
515.0    0.346
516.0    0.347
517.0    0.348
518.0    0.348
519.0    0.349
520.0    0.350
521.0    0.352
522.0    0.354
523.0    0.356
524.0    0.358
525.0    0.359
526.0    0.360
527.0    0.360
528.0    0.360
529.0    0.360
530.0    0.361
531.0    0.361
532.0    0.363
533.0    0.364
534.0    0.365
535.0    0.367
536.0    0.369
537.0    0.369
538.0    0.368
539.0    0.365
540.0    0.365
541.0    0.362
542.0    0.367
543.0    0.372
544.0    0.376
545.0    0.323
546.0    0.325
547.0    0.243
548.0    0.140
549.0    0.063
550.0    0.065
551.0    0.013
552.0    0.006
553.0    0.003
554.0    0.002
555.0    0.003
556.0    0.001
557.0    0.000
558.0    0.000
559.0    0.000
560.0    0.000
561.0    0.000
562.0    0.000
563.0    0.000
564.0    0.000
565.0    0.000
566.0    0.000
567.0    0.000
568.0    0.000
569.0    0.000
570.0    0.000
571.0    0.000
572.0    0.000
573.0    0.000
574.0    0.000
575.0    0.000
576.0    0.000
577.0    0.000
578.0    0.000
579.0    0.000
580.0    0.000
581.0    0.000
582.0    0.000
583.0    0.000
584.0    0.000
585.0    0.000
586.0    0.000
587.0    0.000
588.0    0.000
589.0    0.000
590.0    0.000
591.0    0.000
592.0    0.000
593.0    0.000
594.0    0.000
595.0    0.000
596.0    0.000
597.0    0.000
598.0    0.000
599.0    0.000
600.0    0.000
601.0    0.000
602.0    0.000
603.0    0.000
604.0    0.000
605.0    0.000
606.0    0.000
607.0    0.000
608.0    0.000
609.0    0.000
610.0    0.000
611.0    0.000
612.0    0.000
613.0    0.000
614.0    0.000
615.0    0.000
616.0    0.000
617.0    0.000
618.0    0.000
619.0    0.000
620.0    0.000
621.0    0.000
622.0    0.000
623.0    0.000
624.0    0.000
625.0    0.000
626.0    0.000
627.0    0.000
628.0    0.000
629.0    0.000
630.0    0.000
631.0    0.000
632.0    0.000
633.0    0.000
634.0    0.000
635.0    0.000
636.0    0.000
637.0    0.000
638.0    0.000
639.0    0.000
640.0    0.000
641.0    0.000
642.0    0.000
643.0    0.000
644.0    0.000
645.0    0.000
646.0    0.000
647.0    0.000
648.0    0.000
649.0    0.000
650.0    0.000
651.0    0.000
652.0    0.000
653.0    0.000
654.0    0.000
655.0    0.000
656.0    0.000
657.0    0.000
658.0    0.000
659.0    0.000
660.0    0.000
661.0    0.000
662.0    0.000
663.0    0.000
664.0    0.000
665.0    0.000
666.0    0.000
667.0    0.000
668.0    0.000
669.0    0.000
670.0    0.000
671.0    0.000
672.0    0.000
673.0    0.000
674.0    0.000
675.0    0.000
676.0    0.000
677.0    0.000
678.0    0.000
679.0    0.000
680.0    0.000
681.0    0.000
682.0    0.000
683.0    0.000
684.0    0.000
685.0    0.000
686.0    0.000
687.0    0.000
688.0    0.000
689.0    0.000
690.0    0.000
691.0    0.000
692.0    0.000
693.0    0.000
694.0    0.000
695.0    0.000
696.0    0.000
697.0    0.000
698.0    0.000
699.0    0.000
700.0    0.000
701.0    0.000
702.0    0.000
703.0    0.000
704.0    0.000
705.0    0.000
706.0    0.000
707.0    0.000
708.0    0.000
709.0    0.000
710.0    0.000
711.0    0.000
712.0    0.000
713.0    0.000
714.0    0.000
715.0    0.000
716.0    0.000
717.0    0.000
718.0    0.000
719.0    0.000
720.0    0.000
721.0    0.000
722.0    0.000
723.0    0.000
724.0    0.000
725.0    0.000
726.0    0.000
727.0    0.000
728.0    0.000
729.0    0.000
730.0    0.000
731.0    0.000
732.0    0.000
733.0    0.000
734.0    0.000
735.0    0.000
736.0    0.000
737.0    0.000
738.0    0.000
739.0    0.000
740.0    0.000
741.0    0.000
742.0    0.000
743.0    0.000
744.0    0.000
745.0    0.000
746.0    0.000
747.0    0.000
748.0    0.000
749.0    0.000
750.0    0.000
751.0    0.000
752.0    0.000
753.0    0.000
754.0    0.000
755.0    0.000
756.0    0.000
757.0    0.000
758.0    0.000
759.0    0.000
760.0    0.000
761.0    0.000
762.0    0.000
763.0    0.000
764.0    0.000
765.0    0.000
766.0    0.000
767.0    0.000
768.0    0.000
769.0    0.000
770.0    0.000
771.0    0.000
772.0    0.000
773.0    0.000
774.0    0.000
775.0    0.000
776.0    0.000
777.0    0.000
778.0    0.000
779.0    0.000
780.0    0.000
781.0    0.000
782.0    0.000
783.0    0.000
784.0    0.001
785.0    0.001
786.0    0.001
787.0    0.001
788.0    0.001
789.0    0.001
790.0    0.001
791.0    0.001
792.0    0.001
793.0    0.001
794.0    0.001
795.0    0.001
796.0    0.001
797.0    0.001
798.0    0.001
799.0    0.001
800.0    0.001
801.0    0.001
802.0    0.001
803.0    0.001
804.0    0.001
805.0    0.001
806.0    0.001
807.0    0.001
808.0    0.001
809.0    0.001
810.0    0.001
811.0    0.001
812.0    0.001
813.0    0.001
814.0    0.001
815.0    0.001
816.0    0.001
817.0    0.001
818.0    0.001
819.0    0.001
820.0    0.001
821.0    0.001
822.0    0.001
823.0    0.001
824.0    0.001
825.0    0.001
826.0    0.001
827.0    0.001
828.0    0.001
829.0    0.001
830.0    0.001
831.0    0.001
832.0    0.001
833.0    0.001
834.0    0.001
835.0    0.001
836.0    0.001
837.0    0.001
838.0    0.001
839.0    0.001
840.0    0.001
841.0    0.001
842.0    0.001
843.0    0.001
844.0    0.001
845.0    0.001
846.0    0.001
847.0    0.001
848.0    0.001
849.0    0.001
850.0    0.001
851.0    0.001
852.0    0.001
853.0    0.001
854.0    0.001
855.0    0.001
856.0    0.001
857.0    0.001
858.0    0.001
859.0    0.001
860.0    0.001
861.0    0.001
862.0    0.001
863.0    0.001
864.0    0.001
865.0    0.001
866.0    0.001
867.0    0.001
868.0    0.001
869.0    0.001
870.0    0.001
871.0    0.001
872.0    0.001
873.0    0.001
874.0    0.001
875.0    0.001
876.0    0.001
877.0    0.001
878.0    0.001
879.0    0.001
880.0    0.001
881.0    0.001
882.0    0.001
883.0    0.001
884.0    0.001
885.0    0.001
886.0    0.001
887.0    0.001
888.0    0.001
889.0    0.001
890.0    0.001
891.0    0.001
892.0    0.001
893.0    0.001
894.0    0.001
895.0    0.001
896.0    0.001
897.0    0.001
898.0    0.001
899.0    0.001
900.0    0.001
901.0    0.001
902.0    0.001
903.0    0.001
904.0    0.001
905.0    0.001
906.0    0.001
907.0    0.001
908.0    0.001
909.0    0.001
910.0    0.001
911.0    0.001
912.0    0.001
913.0    0.001
914.0    0.001
915.0    0.001
916.0    0.001
917.0    0.001
918.0    0.001
919.0    0.001
920.0    0.001
921.0    0.001
922.0    0.001
923.0    0.001
924.0    0.001
925.0    0.001
926.0    0.001
927.0    0.001
928.0    0.001
929.0    0.001
930.0    0.000
931.0    0.000
932.0    0.000
933.0    0.000
934.0    0.000
935.0    0.000
936.0    0.000
937.0    0.000
938.0    0.000
939.0    0.000
940.0    0.000
941.0    0.000
942.0    0.000
943.0    0.000
944.0    0.000
945.0    0.000
946.0    0.000
947.0    0.000
948.0    0.000
949.0    0.000
950.0    0.000
951.0    0.000
952.0    0.000
953.0    0.000
954.0    0.000
955.0    0.000
956.0    0.000
957.0    0.000
958.0    0.000
959.0    0.000
960.0    0.000
961.0    0.000
962.0    0.000
963.0    0.000
964.0    0.000
965.0    0.000
966.0    0.000
967.0    0.000
968.0    0.001
969.0    0.001
970.0    0.001
971.0    0.001
972.0    0.001
973.0    0.001
974.0    0.000
