# file: i_DECam.Euclid.pb
# instrument: Euclid
# system: AB
# xtype: wavelength
# ytype: qe
# description: Full system QE
# comment: SPV2 values from SPV02 branch of the Euclid MDB
# comment: MDB file: EUC_MDB_MISSIONCONFIGURATION-SPV02_2018-03-08T140000.00Z_01.01.xml
# comment: MDB variable: ExternalData.BLA.BlancoDECamTotalTrans.i
# url: http://euclid.esac.esa.int/epdb/db/SPV02/
# reference: Euclid Consortium Mission Performance Document, V 2.0
# xref: 782.0 nm
# filter: i_DECam
# xunit: nm
 397.0    0.000
 398.0    0.001
 399.0    0.001
 400.0    0.001
 401.0    0.001
 402.0    0.001
 403.0    0.001
 404.0    0.001
 405.0    0.001
 406.0    0.001
 407.0    0.001
 408.0    0.001
 409.0    0.001
 410.0    0.001
 411.0    0.001
 412.0    0.001
 413.0    0.001
 414.0    0.001
 415.0    0.001
 416.0    0.001
 417.0    0.001
 418.0    0.002
 419.0    0.002
 420.0    0.002
 421.0    0.002
 422.0    0.002
 423.0    0.001
 424.0    0.001
 425.0    0.001
 426.0    0.001
 427.0    0.001
 428.0    0.001
 429.0    0.001
 430.0    0.001
 431.0    0.001
 432.0    0.001
 433.0    0.001
 434.0    0.001
 435.0    0.001
 436.0    0.001
 437.0    0.001
 438.0    0.001
 439.0    0.001
 440.0    0.001
 441.0    0.001
 442.0    0.001
 443.0    0.001
 444.0    0.001
 445.0    0.001
 446.0    0.001
 447.0    0.001
 448.0    0.001
 449.0    0.001
 450.0    0.001
 451.0    0.001
 452.0    0.001
 453.0    0.001
 454.0    0.001
 455.0    0.001
 456.0    0.001
 457.0    0.001
 458.0    0.001
 459.0    0.001
 460.0    0.001
 461.0    0.001
 462.0    0.001
 463.0    0.001
 464.0    0.001
 465.0    0.001
 466.0    0.001
 467.0    0.001
 468.0    0.001
 469.0    0.001
 470.0    0.001
 471.0    0.001
 472.0    0.001
 473.0    0.001
 474.0    0.001
 475.0    0.001
 476.0    0.001
 477.0    0.001
 478.0    0.001
 479.0    0.001
 480.0    0.001
 481.0    0.001
 482.0    0.001
 483.0    0.001
 484.0    0.001
 485.0    0.001
 486.0    0.001
 487.0    0.001
 488.0    0.001
 489.0    0.001
 490.0    0.002
 491.0    0.001
 492.0    0.001
 493.0    0.001
 494.0    0.001
 495.0    0.001
 496.0    0.001
 497.0    0.001
 498.0    0.001
 499.0    0.001
 500.0    0.001
 501.0    0.001
 502.0    0.001
 503.0    0.001
 504.0    0.001
 505.0    0.001
 506.0    0.001
 507.0    0.001
 508.0    0.001
 509.0    0.001
 510.0    0.001
 511.0    0.001
 512.0    0.001
 513.0    0.001
 514.0    0.001
 515.0    0.001
 516.0    0.001
 517.0    0.001
 518.0    0.001
 519.0    0.001
 520.0    0.001
 521.0    0.001
 522.0    0.001
 523.0    0.001
 524.0    0.001
 525.0    0.001
 526.0    0.001
 527.0    0.001
 528.0    0.001
 529.0    0.001
 530.0    0.001
 531.0    0.001
 532.0    0.001
 533.0    0.001
 534.0    0.001
 535.0    0.001
 536.0    0.001
 537.0    0.001
 538.0    0.001
 539.0    0.000
 540.0    0.000
 541.0    0.000
 542.0    0.000
 543.0    0.000
 544.0    0.000
 545.0    0.000
 546.0    0.000
 547.0    0.000
 548.0    0.000
 549.0    0.000
 550.0    0.000
 551.0    0.000
 552.0    0.000
 553.0    0.000
 554.0    0.000
 555.0    0.000
 556.0    0.000
 557.0    0.000
 558.0    0.000
 559.0    0.000
 560.0    0.000
 561.0    0.000
 562.0    0.000
 563.0    0.000
 564.0    0.000
 565.0    0.000
 566.0    0.000
 567.0    0.000
 568.0    0.000
 569.0    0.000
 570.0    0.000
 571.0    0.000
 572.0    0.000
 573.0    0.000
 574.0    0.000
 575.0    0.000
 576.0    0.000
 577.0    0.000
 578.0    0.000
 579.0    0.000
 580.0    0.000
 581.0    0.000
 582.0    0.000
 583.0    0.000
 584.0    0.000
 585.0    0.000
 586.0    0.000
 587.0    0.000
 588.0    0.000
 589.0    0.000
 590.0    0.000
 591.0    0.000
 592.0    0.000
 593.0    0.000
 594.0    0.000
 595.0    0.000
 596.0    0.000
 597.0    0.000
 598.0    0.000
 599.0    0.000
 600.0    0.000
 601.0    0.000
 602.0    0.000
 603.0    0.000
 604.0    0.000
 605.0    0.000
 606.0    0.000
 607.0    0.000
 608.0    0.000
 609.0    0.000
 610.0    0.000
 611.0    0.000
 612.0    0.000
 613.0    0.000
 614.0    0.000
 615.0    0.000
 616.0    0.000
 617.0    0.000
 618.0    0.000
 619.0    0.000
 620.0    0.000
 621.0    0.000
 622.0    0.000
 623.0    0.000
 624.0    0.000
 625.0    0.000
 626.0    0.000
 627.0    0.000
 628.0    0.000
 629.0    0.000
 630.0    0.000
 631.0    0.000
 632.0    0.000
 633.0    0.000
 634.0    0.000
 635.0    0.000
 636.0    0.000
 637.0    0.000
 638.0    0.000
 639.0    0.000
 640.0    0.000
 641.0    0.000
 642.0    0.000
 643.0    0.000
 644.0    0.000
 645.0    0.000
 646.0    0.000
 647.0    0.000
 648.0    0.000
 649.0    0.000
 650.0    0.000
 651.0    0.000
 652.0    0.000
 653.0    0.000
 654.0    0.000
 655.0    0.000
 656.0    0.000
 657.0    0.000
 658.0    0.000
 659.0    0.000
 660.0    0.000
 661.0    0.000
 662.0    0.000
 663.0    0.000
 664.0    0.000
 665.0    0.000
 666.0    0.000
 667.0    0.000
 668.0    0.000
 669.0    0.000
 670.0    0.000
 671.0    0.000
 672.0    0.000
 673.0    0.002
 674.0    0.004
 675.0    0.002
 676.0    0.000
 677.0    0.001
 678.0    0.001
 679.0    0.001
 680.0    0.001
 681.0    0.001
 682.0    0.001
 683.0    0.001
 684.0    0.001
 685.0    0.001
 686.0    0.001
 687.0    0.001
 688.0    0.002
 689.0    0.003
 690.0    0.002
 691.0    0.003
 692.0    0.003
 693.0    0.004
 694.0    0.004
 695.0    0.006
 696.0    0.007
 697.0    0.010
 698.0    0.014
 699.0    0.046
 700.0    0.033
 701.0    0.046
 702.0    0.060
 703.0    0.087
 704.0    0.114
 705.0    0.151
 706.0    0.189
 707.0    0.233
 708.0    0.277
 709.0    0.352
 710.0    0.359
 711.0    0.398
 712.0    0.436
 713.0    0.459
 714.0    0.483
 715.0    0.496
 716.0    0.508
 717.0    0.499
 718.0    0.495
 719.0    0.492
 720.0    0.487
 721.0    0.508
 722.0    0.520
 723.0    0.516
 724.0    0.504
 725.0    0.508
 726.0    0.509
 727.0    0.514
 728.0    0.514
 729.0    0.520
 730.0    0.519
 731.0    0.516
 732.0    0.526
 733.0    0.532
 734.0    0.534
 735.0    0.533
 736.0    0.530
 737.0    0.532
 738.0    0.536
 739.0    0.538
 740.0    0.544
 741.0    0.547
 742.0    0.549
 743.0    0.550
 744.0    0.551
 745.0    0.552
 746.0    0.551
 747.0    0.551
 748.0    0.551
 749.0    0.550
 750.0    0.552
 751.0    0.553
 752.0    0.553
 753.0    0.553
 754.0    0.554
 755.0    0.554
 756.0    0.553
 757.0    0.552
 758.0    0.550
 759.0    0.508
 760.0    0.228
 761.0    0.202
 762.0    0.361
 763.0    0.312
 764.0    0.337
 765.0    0.394
 766.0    0.464
 767.0    0.500
 768.0    0.524
 769.0    0.537
 770.0    0.547
 771.0    0.551
 772.0    0.552
 773.0    0.554
 774.0    0.555
 775.0    0.557
 776.0    0.558
 777.0    0.559
 778.0    0.560
 779.0    0.559
 780.0    0.559
 781.0    0.560
 782.0    0.560
 783.0    0.559
 784.0    0.559
 785.0    0.558
 786.0    0.558
 787.0    0.556
 788.0    0.554
 789.0    0.549
 790.0    0.547
 791.0    0.546
 792.0    0.545
 793.0    0.544
 794.0    0.544
 795.0    0.540
 796.0    0.532
 797.0    0.533
 798.0    0.536
 799.0    0.537
 800.0    0.537
 801.0    0.538
 802.0    0.539
 803.0    0.541
 804.0    0.546
 805.0    0.545
 806.0    0.548
 807.0    0.563
 808.0    0.551
 809.0    0.546
 810.0    0.542
 811.0    0.538
 812.0    0.537
 813.0    0.527
 814.0    0.530
 815.0    0.528
 816.0    0.519
 817.0    0.522
 818.0    0.523
 819.0    0.522
 820.0    0.528
 821.0    0.536
 822.0    0.526
 823.0    0.505
 824.0    0.519
 825.0    0.527
 826.0    0.527
 827.0    0.528
 828.0    0.523
 829.0    0.528
 830.0    0.535
 831.0    0.540
 832.0    0.547
 833.0    0.556
 834.0    0.549
 835.0    0.550
 836.0    0.544
 837.0    0.539
 838.0    0.545
 839.0    0.546
 840.0    0.545
 841.0    0.547
 842.0    0.544
 843.0    0.554
 844.0    0.550
 845.0    0.563
 846.0    0.553
 847.0    0.573
 848.0    0.285
 849.0    0.553
 850.0    0.567
 851.0    0.556
 852.0    0.560
 853.0    0.490
 854.0    0.480
 855.0    0.333
 856.0    0.316
 857.0    0.165
 858.0    0.162
 859.0    0.067
 860.0    0.062
 861.0    0.023
 862.0    0.024
 863.0    0.009
 864.0    0.009
 865.0    0.004
 866.0    0.003
 867.0    0.002
 868.0    0.001
 869.0    0.001
 870.0    0.003
 871.0    0.001
 872.0    0.001
 873.0    0.001
 874.0    0.001
 875.0    0.000
 876.0    0.000
 877.0    0.001
 878.0    0.000
 879.0    0.000
 880.0    0.001
 881.0    0.001
 882.0    0.001
 883.0    0.001
 884.0    0.001
 885.0    0.000
 886.0    0.000
 887.0    0.000
 888.0    0.001
 889.0    0.000
 890.0    0.000
 891.0    0.000
 892.0    0.000
 893.0    0.000
 894.0    0.000
 895.0    0.000
 896.0    0.000
 897.0    0.000
 898.0    0.000
 899.0    0.001
 900.0    0.001
 901.0    0.000
 902.0    0.000
 903.0    0.000
 904.0    0.001
 905.0    0.001
 906.0    0.001
 907.0    0.000
 908.0    0.000
 909.0    0.000
 910.0    0.000
 911.0    0.001
 912.0    0.001
 913.0    0.000
 914.0    0.000
 915.0    0.001
 916.0    0.001
 917.0    0.001
 918.0    0.001
 919.0    0.001
 920.0    0.001
 921.0    0.001
 922.0    0.001
 923.0    0.001
 924.0    0.001
 925.0    0.001
 926.0    0.001
 927.0    0.000
 928.0    0.000
 929.0    0.000
 930.0    0.000
 931.0    0.000
 932.0    0.000
 933.0    0.000
 934.0    0.000
 935.0    0.000
 936.0    0.000
 937.0    0.000
 938.0    0.000
 939.0    0.001
 940.0    0.001
 941.0    0.001
 942.0    0.000
 943.0    0.000
 944.0    0.000
 945.0    0.000
 946.0    0.000
 947.0    0.000
 948.0    0.000
 949.0    0.000
 950.0    0.000
 951.0    0.000
 952.0    0.000
 953.0    0.000
 954.0    0.000
 955.0    0.000
 956.0    0.000
 957.0    0.000
 958.0    0.001
 959.0    0.001
 960.0    0.001
 961.0    0.001
 962.0    0.001
 963.0    0.001
 964.0    0.001
 965.0    0.001
 966.0    0.001
 967.0    0.001
 968.0    0.001
 969.0    0.001
 970.0    0.001
 971.0    0.001
 972.0    0.001
 973.0    0.001
 974.0    0.001
 975.0    0.001
 976.0    0.001
 977.0    0.001
 978.0    0.001
 979.0    0.001
 980.0    0.001
 981.0    0.001
 982.0    0.001
 983.0    0.001
 984.0    0.001
 985.0    0.001
 986.0    0.001
 987.0    0.001
 988.0    0.001
 989.0    0.001
 990.0    0.001
 991.0    0.000
