# file: y_LSST.Euclid.pb
# system: AB
# comment: SPV2 values from SPV02 branch of the Euclid MDB
# comment: table LSST.y-TotalTransmissionsAsOfMarch2017.dat
# filter: y_LSST
# instrument: Euclid
# description: Full system QE
# url: http://euclid.esac.esa.int/epdb/db/SPV02/
# xref: 9710.0 Angstrom
# xtype: wavelength
# ytype: qe
# reference: Euclid Consortium Mission Performance Document, V 2.0
# xunit: Angstrom
9085.0    0.000
9086.0    0.001
9087.0    0.001
9088.0    0.002
9089.0    0.003
9090.0    0.004
9091.0    0.004
9092.0    0.005
9093.0    0.006
9094.0    0.006
9095.0    0.007
9096.0    0.008
9097.0    0.009
9098.0    0.009
9099.0    0.010
9100.0    0.011
9101.0    0.012
9102.0    0.012
9103.0    0.013
9104.0    0.014
9105.0    0.014
9106.0    0.015
9107.0    0.016
9108.0    0.017
9109.0    0.017
9110.0    0.018
9111.0    0.019
9112.0    0.020
9113.0    0.020
9114.0    0.021
9115.0    0.022
9116.0    0.022
9117.0    0.023
9118.0    0.024
9119.0    0.024
9120.0    0.025
9121.0    0.026
9122.0    0.027
9123.0    0.027
9124.0    0.028
9125.0    0.029
9126.0    0.029
9127.0    0.030
9128.0    0.031
9129.0    0.031
9130.0    0.032
9131.0    0.032
9132.0    0.033
9133.0    0.033
9134.0    0.034
9135.0    0.034
9136.0    0.036
9137.0    0.037
9138.0    0.039
9139.0    0.040
9140.0    0.042
9141.0    0.044
9142.0    0.045
9143.0    0.047
9144.0    0.049
9145.0    0.051
9146.0    0.052
9147.0    0.054
9148.0    0.055
9149.0    0.056
9150.0    0.057
9151.0    0.058
9152.0    0.059
9153.0    0.060
9154.0    0.060
9155.0    0.061
9156.0    0.063
9157.0    0.064
9158.0    0.066
9159.0    0.067
9160.0    0.069
9161.0    0.071
9162.0    0.073
9163.0    0.075
9164.0    0.078
9165.0    0.080
9166.0    0.081
9167.0    0.083
9168.0    0.084
9169.0    0.086
9170.0    0.087
9171.0    0.088
9172.0    0.089
9173.0    0.090
9174.0    0.090
9175.0    0.091
9176.0    0.092
9177.0    0.093
9178.0    0.094
9179.0    0.095
9180.0    0.097
9181.0    0.099
9182.0    0.100
9183.0    0.102
9184.0    0.104
9185.0    0.106
9186.0    0.108
9187.0    0.110
9188.0    0.113
9189.0    0.115
9190.0    0.117
9191.0    0.118
9192.0    0.120
9193.0    0.122
9194.0    0.123
9195.0    0.125
9196.0    0.127
9197.0    0.128
9198.0    0.130
9199.0    0.131
9200.0    0.132
9201.0    0.134
9202.0    0.136
9203.0    0.138
9204.0    0.140
9205.0    0.142
9206.0    0.143
9207.0    0.144
9208.0    0.146
9209.0    0.147
9210.0    0.148
9211.0    0.149
9212.0    0.150
9213.0    0.151
9214.0    0.152
9215.0    0.153
9216.0    0.155
9217.0    0.156
9218.0    0.158
9219.0    0.159
9220.0    0.160
9221.0    0.162
9222.0    0.164
9223.0    0.165
9224.0    0.167
9225.0    0.169
9226.0    0.170
9227.0    0.172
9228.0    0.173
9229.0    0.174
9230.0    0.176
9231.0    0.177
9232.0    0.178
9233.0    0.179
9234.0    0.180
9235.0    0.182
9236.0    0.183
9237.0    0.184
9238.0    0.185
9239.0    0.186
9240.0    0.187
9241.0    0.188
9242.0    0.189
9243.0    0.191
9244.0    0.192
9245.0    0.193
9246.0    0.194
9247.0    0.195
9248.0    0.197
9249.0    0.198
9250.0    0.199
9251.0    0.201
9252.0    0.202
9253.0    0.204
9254.0    0.205
9255.0    0.207
9256.0    0.208
9257.0    0.210
9258.0    0.211
9259.0    0.213
9260.0    0.214
9261.0    0.216
9262.0    0.217
9263.0    0.218
9264.0    0.220
9265.0    0.221
9266.0    0.223
9267.0    0.224
9268.0    0.226
9269.0    0.228
9270.0    0.229
9271.0    0.229
9272.0    0.229
9273.0    0.229
9274.0    0.229
9275.0    0.229
9276.0    0.229
9277.0    0.228
9278.0    0.228
9279.0    0.227
9280.0    0.227
9281.0    0.227
9282.0    0.228
9283.0    0.229
9284.0    0.230
9285.0    0.231
9286.0    0.231
9287.0    0.232
9288.0    0.233
9289.0    0.233
9290.0    0.234
9291.0    0.234
9292.0    0.234
9293.0    0.234
9294.0    0.234
9295.0    0.234
9296.0    0.233
9297.0    0.232
9298.0    0.231
9299.0    0.230
9300.0    0.229
9301.0    0.228
9302.0    0.227
9303.0    0.226
9304.0    0.225
9305.0    0.224
9306.0    0.223
9307.0    0.222
9308.0    0.221
9309.0    0.220
9310.0    0.220
9311.0    0.218
9312.0    0.217
9313.0    0.216
9314.0    0.214
9315.0    0.213
9316.0    0.210
9317.0    0.206
9318.0    0.203
9319.0    0.199
9320.0    0.196
9321.0    0.195
9322.0    0.194
9323.0    0.193
9324.0    0.192
9325.0    0.192
9326.0    0.193
9327.0    0.194
9328.0    0.195
9329.0    0.196
9330.0    0.197
9331.0    0.197
9332.0    0.196
9333.0    0.196
9334.0    0.195
9335.0    0.194
9336.0    0.191
9337.0    0.187
9338.0    0.183
9339.0    0.179
9340.0    0.175
9341.0    0.173
9342.0    0.172
9343.0    0.171
9344.0    0.170
9345.0    0.169
9346.0    0.175
9347.0    0.181
9348.0    0.187
9349.0    0.193
9350.0    0.199
9351.0    0.202
9352.0    0.204
9353.0    0.206
9354.0    0.208
9355.0    0.210
9356.0    0.209
9357.0    0.208
9358.0    0.206
9359.0    0.205
9360.0    0.203
9361.0    0.204
9362.0    0.205
9363.0    0.206
9364.0    0.207
9365.0    0.208
9366.0    0.208
9367.0    0.207
9368.0    0.206
9369.0    0.205
9370.0    0.204
9371.0    0.206
9372.0    0.209
9373.0    0.211
9374.0    0.214
9375.0    0.216
9376.0    0.217
9377.0    0.218
9378.0    0.219
9379.0    0.220
9380.0    0.220
9381.0    0.221
9382.0    0.222
9383.0    0.223
9384.0    0.224
9385.0    0.225
9386.0    0.230
9387.0    0.236
9388.0    0.242
9389.0    0.248
9390.0    0.254
9391.0    0.260
9392.0    0.266
9393.0    0.272
9394.0    0.278
9395.0    0.284
9396.0    0.283
9397.0    0.282
9398.0    0.281
9399.0    0.279
9400.0    0.278
9401.0    0.275
9402.0    0.271
9403.0    0.268
9404.0    0.264
9405.0    0.261
9406.0    0.260
9407.0    0.260
9408.0    0.260
9409.0    0.259
9410.0    0.259
9411.0    0.261
9412.0    0.263
9413.0    0.264
9414.0    0.266
9415.0    0.268
9416.0    0.267
9417.0    0.267
9418.0    0.266
9419.0    0.265
9420.0    0.265
9421.0    0.260
9422.0    0.254
9423.0    0.249
9424.0    0.244
9425.0    0.239
9426.0    0.235
9427.0    0.231
9428.0    0.227
9429.0    0.223
9430.0    0.219
9431.0    0.222
9432.0    0.225
9433.0    0.228
9434.0    0.231
9435.0    0.233
9436.0    0.231
9437.0    0.228
9438.0    0.226
9439.0    0.223
9440.0    0.221
9441.0    0.219
9442.0    0.216
9443.0    0.214
9444.0    0.212
9445.0    0.210
9446.0    0.215
9447.0    0.220
9448.0    0.226
9449.0    0.231
9450.0    0.236
9451.0    0.237
9452.0    0.238
9453.0    0.239
9454.0    0.240
9455.0    0.241
9456.0    0.237
9457.0    0.234
9458.0    0.231
9459.0    0.228
9460.0    0.224
9461.0    0.226
9462.0    0.227
9463.0    0.228
9464.0    0.229
9465.0    0.230
9466.0    0.233
9467.0    0.236
9468.0    0.239
9469.0    0.242
9470.0    0.245
9471.0    0.245
9472.0    0.244
9473.0    0.243
9474.0    0.243
9475.0    0.242
9476.0    0.238
9477.0    0.234
9478.0    0.229
9479.0    0.225
9480.0    0.221
9481.0    0.222
9482.0    0.224
9483.0    0.226
9484.0    0.228
9485.0    0.229
9486.0    0.235
9487.0    0.241
9488.0    0.247
9489.0    0.253
9490.0    0.259
9491.0    0.256
9492.0    0.252
9493.0    0.249
9494.0    0.246
9495.0    0.243
9496.0    0.238
9497.0    0.233
9498.0    0.229
9499.0    0.224
9500.0    0.219
9501.0    0.223
9502.0    0.226
9503.0    0.229
9504.0    0.232
9505.0    0.235
9506.0    0.241
9507.0    0.247
9508.0    0.253
9509.0    0.259
9510.0    0.264
9511.0    0.263
9512.0    0.262
9513.0    0.261
9514.0    0.260
9515.0    0.259
9516.0    0.253
9517.0    0.246
9518.0    0.240
9519.0    0.233
9520.0    0.227
9521.0    0.225
9522.0    0.223
9523.0    0.222
9524.0    0.220
9525.0    0.218
9526.0    0.221
9527.0    0.225
9528.0    0.228
9529.0    0.231
9530.0    0.235
9531.0    0.237
9532.0    0.239
9533.0    0.241
9534.0    0.243
9535.0    0.245
9536.0    0.245
9537.0    0.246
9538.0    0.246
9539.0    0.247
9540.0    0.247
9541.0    0.246
9542.0    0.245
9543.0    0.244
9544.0    0.243
9545.0    0.243
9546.0    0.243
9547.0    0.243
9548.0    0.243
9549.0    0.244
9550.0    0.244
9551.0    0.243
9552.0    0.242
9553.0    0.241
9554.0    0.240
9555.0    0.239
9556.0    0.237
9557.0    0.236
9558.0    0.235
9559.0    0.234
9560.0    0.233
9561.0    0.233
9562.0    0.233
9563.0    0.233
9564.0    0.234
9565.0    0.234
9566.0    0.234
9567.0    0.235
9568.0    0.235
9569.0    0.236
9570.0    0.236
9571.0    0.240
9572.0    0.243
9573.0    0.247
9574.0    0.251
9575.0    0.255
9576.0    0.255
9577.0    0.255
9578.0    0.255
9579.0    0.255
9580.0    0.255
9581.0    0.253
9582.0    0.251
9583.0    0.250
9584.0    0.248
9585.0    0.246
9586.0    0.244
9587.0    0.242
9588.0    0.240
9589.0    0.239
9590.0    0.237
9591.0    0.235
9592.0    0.234
9593.0    0.233
9594.0    0.231
9595.0    0.230
9596.0    0.232
9597.0    0.233
9598.0    0.235
9599.0    0.237
9600.0    0.239
9601.0    0.241
9602.0    0.242
9603.0    0.244
9604.0    0.246
9605.0    0.247
9606.0    0.248
9607.0    0.249
9608.0    0.251
9609.0    0.252
9610.0    0.253
9611.0    0.254
9612.0    0.255
9613.0    0.256
9614.0    0.257
9615.0    0.258
9616.0    0.257
9617.0    0.255
9618.0    0.254
9619.0    0.252
9620.0    0.251
9621.0    0.248
9622.0    0.246
9623.0    0.243
9624.0    0.241
9625.0    0.238
9626.0    0.240
9627.0    0.242
9628.0    0.244
9629.0    0.245
9630.0    0.247
9631.0    0.249
9632.0    0.251
9633.0    0.253
9634.0    0.254
9635.0    0.256
9636.0    0.255
9637.0    0.254
9638.0    0.254
9639.0    0.253
9640.0    0.252
9641.0    0.252
9642.0    0.251
9643.0    0.251
9644.0    0.251
9645.0    0.251
9646.0    0.252
9647.0    0.252
9648.0    0.253
9649.0    0.254
9650.0    0.254
9651.0    0.256
9652.0    0.257
9653.0    0.258
9654.0    0.259
9655.0    0.261
9656.0    0.259
9657.0    0.258
9658.0    0.257
9659.0    0.256
9660.0    0.254
9661.0    0.252
9662.0    0.250
9663.0    0.248
9664.0    0.245
9665.0    0.243
9666.0    0.244
9667.0    0.245
9668.0    0.246
9669.0    0.246
9670.0    0.247
9671.0    0.251
9672.0    0.255
9673.0    0.258
9674.0    0.262
9675.0    0.266
9676.0    0.267
9677.0    0.268
9678.0    0.269
9679.0    0.270
9680.0    0.271
9681.0    0.270
9682.0    0.269
9683.0    0.267
9684.0    0.266
9685.0    0.265
9686.0    0.265
9687.0    0.266
9688.0    0.266
9689.0    0.267
9690.0    0.267
9691.0    0.268
9692.0    0.268
9693.0    0.269
9694.0    0.269
9695.0    0.270
9696.0    0.269
9697.0    0.268
9698.0    0.267
9699.0    0.266
9700.0    0.266
9701.0    0.265
9702.0    0.265
9703.0    0.264
9704.0    0.264
9705.0    0.263
9706.0    0.264
9707.0    0.264
9708.0    0.264
9709.0    0.265
9710.0    0.265
9711.0    0.264
9712.0    0.264
9713.0    0.263
9714.0    0.262
9715.0    0.261
9716.0    0.260
9717.0    0.260
9718.0    0.259
9719.0    0.259
9720.0    0.258
9721.0    0.258
9722.0    0.257
9723.0    0.257
9724.0    0.256
9725.0    0.256
9726.0    0.255
9727.0    0.253
9728.0    0.252
9729.0    0.251
9730.0    0.250
9731.0    0.250
9732.0    0.249
9733.0    0.248
9734.0    0.247
9735.0    0.246
9736.0    0.246
9737.0    0.245
9738.0    0.245
9739.0    0.244
9740.0    0.244
9741.0    0.243
9742.0    0.242
9743.0    0.242
9744.0    0.241
9745.0    0.240
9746.0    0.239
9747.0    0.238
9748.0    0.238
9749.0    0.237
9750.0    0.236
9751.0    0.236
9752.0    0.236
9753.0    0.236
9754.0    0.236
9755.0    0.235
9756.0    0.235
9757.0    0.234
9758.0    0.234
9759.0    0.233
9760.0    0.233
9761.0    0.233
9762.0    0.233
9763.0    0.233
9764.0    0.233
9765.0    0.233
9766.0    0.234
9767.0    0.235
9768.0    0.236
9769.0    0.237
9770.0    0.238
9771.0    0.238
9772.0    0.239
9773.0    0.239
9774.0    0.239
9775.0    0.240
9776.0    0.239
9777.0    0.238
9778.0    0.237
9779.0    0.236
9780.0    0.235
9781.0    0.235
9782.0    0.234
9783.0    0.233
9784.0    0.233
9785.0    0.232
9786.0    0.232
9787.0    0.231
9788.0    0.231
9789.0    0.230
9790.0    0.230
9791.0    0.229
9792.0    0.229
9793.0    0.228
9794.0    0.228
9795.0    0.227
9796.0    0.227
9797.0    0.227
9798.0    0.227
9799.0    0.227
9800.0    0.227
9801.0    0.227
9802.0    0.226
9803.0    0.226
9804.0    0.226
9805.0    0.226
9806.0    0.227
9807.0    0.228
9808.0    0.229
9809.0    0.229
9810.0    0.230
9811.0    0.230
9812.0    0.230
9813.0    0.230
9814.0    0.230
9815.0    0.230
9816.0    0.229
9817.0    0.229
9818.0    0.228
9819.0    0.227
9820.0    0.227
9821.0    0.226
9822.0    0.225
9823.0    0.224
9824.0    0.224
9825.0    0.223
9826.0    0.222
9827.0    0.222
9828.0    0.221
9829.0    0.221
9830.0    0.220
9831.0    0.221
9832.0    0.221
9833.0    0.221
9834.0    0.221
9835.0    0.221
9836.0    0.221
9837.0    0.221
9838.0    0.221
9839.0    0.221
9840.0    0.221
9841.0    0.221
9842.0    0.220
9843.0    0.219
9844.0    0.219
9845.0    0.218
9846.0    0.217
9847.0    0.217
9848.0    0.216
9849.0    0.215
9850.0    0.215
9851.0    0.215
9852.0    0.214
9853.0    0.214
9854.0    0.214
9855.0    0.214
9856.0    0.214
9857.0    0.214
9858.0    0.214
9859.0    0.213
9860.0    0.213
9861.0    0.213
9862.0    0.213
9863.0    0.212
9864.0    0.212
9865.0    0.212
9866.0    0.211
9867.0    0.211
9868.0    0.210
9869.0    0.210
9870.0    0.209
9871.0    0.209
9872.0    0.208
9873.0    0.208
9874.0    0.207
9875.0    0.207
9876.0    0.207
9877.0    0.206
9878.0    0.206
9879.0    0.206
9880.0    0.205
9881.0    0.205
9882.0    0.205
9883.0    0.205
9884.0    0.205
9885.0    0.204
9886.0    0.204
9887.0    0.203
9888.0    0.203
9889.0    0.203
9890.0    0.202
9891.0    0.202
9892.0    0.201
9893.0    0.201
9894.0    0.200
9895.0    0.200
9896.0    0.199
9897.0    0.199
9898.0    0.198
9899.0    0.198
9900.0    0.197
9901.0    0.197
9902.0    0.197
9903.0    0.197
9904.0    0.196
9905.0    0.196
9906.0    0.196
9907.0    0.195
9908.0    0.195
9909.0    0.195
9910.0    0.195
9911.0    0.194
9912.0    0.194
9913.0    0.194
9914.0    0.193
9915.0    0.193
9916.0    0.193
9917.0    0.192
9918.0    0.192
9919.0    0.192
9920.0    0.192
9921.0    0.191
9922.0    0.191
9923.0    0.191
9924.0    0.190
9925.0    0.190
9926.0    0.189
9927.0    0.189
9928.0    0.189
9929.0    0.188
9930.0    0.188
9931.0    0.188
9932.0    0.187
9933.0    0.187
9934.0    0.187
9935.0    0.187
9936.0    0.186
9937.0    0.186
9938.0    0.186
9939.0    0.186
9940.0    0.186
9941.0    0.185
9942.0    0.185
9943.0    0.185
9944.0    0.184
9945.0    0.184
9946.0    0.184
9947.0    0.183
9948.0    0.183
9949.0    0.183
9950.0    0.182
9951.0    0.182
9952.0    0.182
9953.0    0.181
9954.0    0.181
9955.0    0.181
9956.0    0.180
9957.0    0.180
9958.0    0.180
9959.0    0.179
9960.0    0.179
9961.0    0.179
9962.0    0.179
9963.0    0.178
9964.0    0.178
9965.0    0.178
9966.0    0.177
9967.0    0.177
9968.0    0.177
9969.0    0.177
9970.0    0.176
9971.0    0.176
9972.0    0.176
9973.0    0.175
9974.0    0.175
9975.0    0.175
9976.0    0.174
9977.0    0.174
9978.0    0.174
9979.0    0.173
9980.0    0.173
9981.0    0.173
9982.0    0.172
9983.0    0.172
9984.0    0.172
9985.0    0.171
9986.0    0.171
9987.0    0.171
9988.0    0.170
9989.0    0.170
9990.0    0.170
9991.0    0.169
9992.0    0.169
9993.0    0.169
9994.0    0.168
9995.0    0.168
9996.0    0.168
9997.0    0.167
9998.0    0.167
9999.0    0.167
10000.0    0.166
10001.0    0.166
10002.0    0.165
10003.0    0.165
10004.0    0.165
10005.0    0.164
10006.0    0.164
10007.0    0.164
10008.0    0.163
10009.0    0.163
10010.0    0.162
10011.0    0.162
10012.0    0.161
10013.0    0.161
10014.0    0.161
10015.0    0.160
10016.0    0.160
10017.0    0.159
10018.0    0.159
10019.0    0.159
10020.0    0.158
10021.0    0.158
10022.0    0.158
10023.0    0.157
10024.0    0.157
10025.0    0.156
10026.0    0.156
10027.0    0.156
10028.0    0.156
10029.0    0.155
10030.0    0.155
10031.0    0.155
10032.0    0.154
10033.0    0.154
10034.0    0.153
10035.0    0.153
10036.0    0.153
10037.0    0.152
10038.0    0.152
10039.0    0.151
10040.0    0.151
10041.0    0.151
10042.0    0.150
10043.0    0.150
10044.0    0.149
10045.0    0.149
10046.0    0.149
10047.0    0.148
10048.0    0.148
10049.0    0.147
10050.0    0.147
10051.0    0.146
10052.0    0.146
10053.0    0.146
10054.0    0.145
10055.0    0.145
10056.0    0.144
10057.0    0.144
10058.0    0.143
10059.0    0.143
10060.0    0.142
10061.0    0.142
10062.0    0.142
10063.0    0.141
10064.0    0.141
10065.0    0.140
10066.0    0.140
10067.0    0.140
10068.0    0.139
10069.0    0.139
10070.0    0.138
10071.0    0.138
10072.0    0.138
10073.0    0.137
10074.0    0.137
10075.0    0.136
10076.0    0.136
10077.0    0.135
10078.0    0.135
10079.0    0.134
10080.0    0.134
10081.0    0.133
10082.0    0.133
10083.0    0.133
10084.0    0.132
10085.0    0.132
10086.0    0.131
10087.0    0.131
10088.0    0.130
10089.0    0.130
10090.0    0.130
10091.0    0.129
10092.0    0.129
10093.0    0.128
10094.0    0.128
10095.0    0.127
10096.0    0.127
10097.0    0.127
10098.0    0.126
10099.0    0.126
10100.0    0.125
10101.0    0.125
10102.0    0.125
10103.0    0.124
10104.0    0.124
10105.0    0.124
10106.0    0.123
10107.0    0.123
10108.0    0.123
10109.0    0.122
10110.0    0.122
10111.0    0.122
10112.0    0.121
10113.0    0.121
10114.0    0.120
10115.0    0.120
10116.0    0.120
10117.0    0.119
10118.0    0.119
10119.0    0.118
10120.0    0.118
10121.0    0.118
10122.0    0.117
10123.0    0.117
10124.0    0.116
10125.0    0.116
10126.0    0.116
10127.0    0.115
10128.0    0.115
10129.0    0.114
10130.0    0.114
10131.0    0.114
10132.0    0.113
10133.0    0.113
10134.0    0.113
10135.0    0.112
10136.0    0.112
10137.0    0.112
10138.0    0.111
10139.0    0.111
10140.0    0.111
10141.0    0.110
10142.0    0.110
10143.0    0.110
10144.0    0.109
10145.0    0.109
10146.0    0.109
10147.0    0.108
10148.0    0.108
10149.0    0.108
10150.0    0.107
10151.0    0.107
10152.0    0.107
10153.0    0.106
10154.0    0.106
10155.0    0.106
10156.0    0.105
10157.0    0.105
10158.0    0.105
10159.0    0.104
10160.0    0.104
10161.0    0.104
10162.0    0.103
10163.0    0.103
10164.0    0.103
10165.0    0.102
10166.0    0.102
10167.0    0.102
10168.0    0.101
10169.0    0.101
10170.0    0.101
10171.0    0.100
10172.0    0.100
10173.0    0.099
10174.0    0.099
10175.0    0.099
10176.0    0.098
10177.0    0.098
10178.0    0.098
10179.0    0.097
10180.0    0.097
10181.0    0.097
10182.0    0.096
10183.0    0.096
10184.0    0.096
10185.0    0.096
10186.0    0.095
10187.0    0.095
10188.0    0.095
10189.0    0.094
10190.0    0.094
10191.0    0.094
10192.0    0.094
10193.0    0.093
10194.0    0.093
10195.0    0.093
10196.0    0.092
10197.0    0.092
10198.0    0.092
10199.0    0.092
10200.0    0.091
10201.0    0.091
10202.0    0.091
10203.0    0.090
10204.0    0.090
10205.0    0.090
10206.0    0.089
10207.0    0.089
10208.0    0.089
10209.0    0.088
10210.0    0.088
10211.0    0.088
10212.0    0.087
10213.0    0.087
10214.0    0.087
10215.0    0.087
10216.0    0.086
10217.0    0.086
10218.0    0.086
10219.0    0.085
10220.0    0.085
10221.0    0.085
10222.0    0.084
10223.0    0.084
10224.0    0.084
10225.0    0.083
10226.0    0.083
10227.0    0.083
10228.0    0.082
10229.0    0.082
10230.0    0.082
10231.0    0.081
10232.0    0.081
10233.0    0.081
10234.0    0.081
10235.0    0.080
10236.0    0.080
10237.0    0.080
10238.0    0.079
10239.0    0.079
10240.0    0.079
10241.0    0.078
10242.0    0.078
10243.0    0.078
10244.0    0.077
10245.0    0.077
10246.0    0.077
10247.0    0.076
10248.0    0.076
10249.0    0.076
10250.0    0.076
10251.0    0.075
10252.0    0.075
10253.0    0.075
10254.0    0.074
10255.0    0.074
10256.0    0.074
10257.0    0.073
10258.0    0.073
10259.0    0.073
10260.0    0.073
10261.0    0.072
10262.0    0.072
10263.0    0.072
10264.0    0.071
10265.0    0.071
10266.0    0.070
10267.0    0.070
10268.0    0.070
10269.0    0.069
10270.0    0.069
10271.0    0.069
10272.0    0.069
10273.0    0.068
10274.0    0.068
10275.0    0.068
10276.0    0.067
10277.0    0.067
10278.0    0.067
10279.0    0.067
10280.0    0.066
10281.0    0.066
10282.0    0.066
10283.0    0.065
10284.0    0.065
10285.0    0.065
10286.0    0.065
10287.0    0.064
10288.0    0.064
10289.0    0.064
10290.0    0.063
10291.0    0.063
10292.0    0.063
10293.0    0.062
10294.0    0.062
10295.0    0.062
10296.0    0.061
10297.0    0.061
10298.0    0.061
10299.0    0.060
10300.0    0.060
10301.0    0.060
10302.0    0.059
10303.0    0.059
10304.0    0.059
10305.0    0.059
10306.0    0.058
10307.0    0.058
10308.0    0.058
10309.0    0.057
10310.0    0.057
10311.0    0.057
10312.0    0.057
10313.0    0.056
10314.0    0.056
10315.0    0.056
10316.0    0.055
10317.0    0.055
10318.0    0.055
10319.0    0.055
10320.0    0.054
10321.0    0.054
10322.0    0.054
10323.0    0.053
10324.0    0.053
10325.0    0.053
10326.0    0.053
10327.0    0.052
10328.0    0.052
10329.0    0.052
10330.0    0.052
10331.0    0.051
10332.0    0.051
10333.0    0.051
10334.0    0.050
10335.0    0.050
10336.0    0.050
10337.0    0.050
10338.0    0.049
10339.0    0.049
10340.0    0.049
10341.0    0.048
10342.0    0.048
10343.0    0.048
10344.0    0.048
10345.0    0.048
10346.0    0.047
10347.0    0.047
10348.0    0.047
10349.0    0.047
10350.0    0.046
10351.0    0.046
10352.0    0.046
10353.0    0.046
10354.0    0.046
10355.0    0.045
10356.0    0.045
10357.0    0.045
10358.0    0.045
10359.0    0.044
10360.0    0.044
10361.0    0.044
10362.0    0.044
10363.0    0.044
10364.0    0.043
10365.0    0.043
10366.0    0.043
10367.0    0.043
10368.0    0.042
10369.0    0.042
10370.0    0.042
10371.0    0.042
10372.0    0.041
10373.0    0.041
10374.0    0.041
10375.0    0.041
10376.0    0.041
10377.0    0.040
10378.0    0.040
10379.0    0.040
10380.0    0.040
10381.0    0.039
10382.0    0.039
10383.0    0.039
10384.0    0.039
10385.0    0.039
10386.0    0.039
10387.0    0.038
10388.0    0.038
10389.0    0.038
10390.0    0.038
10391.0    0.038
10392.0    0.038
10393.0    0.037
10394.0    0.037
10395.0    0.037
10396.0    0.037
10397.0    0.037
10398.0    0.037
10399.0    0.036
10400.0    0.036
10401.0    0.036
10402.0    0.036
10403.0    0.036
10404.0    0.035
10405.0    0.035
10406.0    0.035
10407.0    0.035
10408.0    0.035
10409.0    0.035
10410.0    0.034
10411.0    0.034
10412.0    0.034
10413.0    0.034
10414.0    0.034
10415.0    0.034
10416.0    0.034
10417.0    0.034
10418.0    0.034
10419.0    0.033
10420.0    0.033
10421.0    0.033
10422.0    0.033
10423.0    0.033
10424.0    0.033
10425.0    0.032
10426.0    0.032
10427.0    0.032
10428.0    0.032
10429.0    0.032
10430.0    0.032
10431.0    0.032
10432.0    0.031
10433.0    0.031
10434.0    0.031
10435.0    0.031
10436.0    0.031
10437.0    0.031
10438.0    0.031
10439.0    0.031
10440.0    0.030
10441.0    0.030
10442.0    0.030
10443.0    0.030
10444.0    0.030
10445.0    0.030
10446.0    0.030
10447.0    0.030
10448.0    0.030
10449.0    0.029
10450.0    0.029
10451.0    0.029
10452.0    0.029
10453.0    0.029
10454.0    0.029
10455.0    0.029
10456.0    0.029
10457.0    0.029
10458.0    0.028
10459.0    0.028
10460.0    0.028
10461.0    0.028
10462.0    0.028
10463.0    0.028
10464.0    0.028
10465.0    0.028
10466.0    0.028
10467.0    0.028
10468.0    0.028
10469.0    0.028
10470.0    0.028
10471.0    0.027
10472.0    0.027
10473.0    0.027
10474.0    0.027
10475.0    0.027
10476.0    0.027
10477.0    0.027
10478.0    0.027
10479.0    0.027
10480.0    0.026
10481.0    0.026
10482.0    0.026
10483.0    0.026
10484.0    0.026
10485.0    0.026
10486.0    0.026
10487.0    0.026
10488.0    0.026
10489.0    0.025
10490.0    0.025
10491.0    0.025
10492.0    0.025
10493.0    0.025
10494.0    0.025
10495.0    0.025
10496.0    0.025
10497.0    0.025
10498.0    0.025
10499.0    0.025
10500.0    0.025
10501.0    0.025
10502.0    0.024
10503.0    0.024
10504.0    0.024
10505.0    0.024
10506.0    0.024
10507.0    0.024
10508.0    0.024
10509.0    0.024
10510.0    0.024
10511.0    0.024
10512.0    0.023
10513.0    0.023
10514.0    0.023
10515.0    0.023
10516.0    0.023
10517.0    0.023
10518.0    0.023
10519.0    0.023
10520.0    0.023
10521.0    0.023
10522.0    0.023
10523.0    0.023
10524.0    0.023
10525.0    0.022
10526.0    0.022
10527.0    0.022
10528.0    0.022
10529.0    0.022
10530.0    0.022
10531.0    0.022
10532.0    0.022
10533.0    0.022
10534.0    0.022
10535.0    0.022
10536.0    0.022
10537.0    0.021
10538.0    0.021
10539.0    0.021
10540.0    0.021
10541.0    0.021
10542.0    0.021
10543.0    0.021
10544.0    0.021
10545.0    0.021
10546.0    0.021
10547.0    0.021
10548.0    0.021
10549.0    0.021
10550.0    0.021
10551.0    0.021
10552.0    0.020
10553.0    0.020
10554.0    0.020
10555.0    0.020
10556.0    0.020
10557.0    0.020
10558.0    0.020
10559.0    0.020
10560.0    0.020
10561.0    0.019
10562.0    0.019
10563.0    0.019
10564.0    0.019
10565.0    0.019
10566.0    0.019
10567.0    0.019
10568.0    0.019
10569.0    0.019
10570.0    0.019
10571.0    0.019
10572.0    0.019
10573.0    0.019
10574.0    0.019
10575.0    0.019
10576.0    0.019
10577.0    0.019
10578.0    0.018
10579.0    0.018
10580.0    0.018
10581.0    0.018
10582.0    0.018
10583.0    0.018
10584.0    0.018
10585.0    0.018
10586.0    0.018
10587.0    0.018
10588.0    0.018
10589.0    0.018
10590.0    0.018
10591.0    0.018
10592.0    0.018
10593.0    0.018
10594.0    0.018
10595.0    0.018
10596.0    0.017
10597.0    0.017
10598.0    0.017
10599.0    0.017
10600.0    0.017
10601.0    0.017
10602.0    0.017
10603.0    0.017
10604.0    0.017
10605.0    0.017
10606.0    0.017
10607.0    0.017
10608.0    0.017
10609.0    0.017
10610.0    0.017
10611.0    0.017
10612.0    0.017
10613.0    0.016
10614.0    0.016
10615.0    0.016
10616.0    0.016
10617.0    0.016
10618.0    0.016
10619.0    0.016
10620.0    0.016
10621.0    0.016
10622.0    0.016
10623.0    0.016
10624.0    0.016
10625.0    0.016
10626.0    0.016
10627.0    0.016
10628.0    0.016
10629.0    0.016
10630.0    0.015
10631.0    0.015
10632.0    0.015
10633.0    0.015
10634.0    0.015
10635.0    0.015
10636.0    0.015
10637.0    0.015
10638.0    0.015
10639.0    0.015
10640.0    0.015
10641.0    0.015
10642.0    0.015
10643.0    0.015
10644.0    0.015
10645.0    0.015
10646.0    0.015
10647.0    0.015
10648.0    0.014
10649.0    0.014
10650.0    0.014
10651.0    0.014
10652.0    0.014
10653.0    0.014
10654.0    0.014
10655.0    0.014
10656.0    0.014
10657.0    0.014
10658.0    0.014
10659.0    0.014
10660.0    0.014
10661.0    0.014
10662.0    0.014
10663.0    0.014
10664.0    0.014
10665.0    0.014
10666.0    0.013
10667.0    0.013
10668.0    0.013
10669.0    0.013
10670.0    0.013
10671.0    0.013
10672.0    0.013
10673.0    0.013
10674.0    0.013
10675.0    0.013
10676.0    0.013
10677.0    0.013
10678.0    0.013
10679.0    0.013
10680.0    0.013
10681.0    0.013
10682.0    0.013
10683.0    0.013
10684.0    0.013
10685.0    0.013
10686.0    0.013
10687.0    0.013
10688.0    0.013
10689.0    0.013
10690.0    0.013
10691.0    0.013
10692.0    0.013
10693.0    0.013
10694.0    0.012
10695.0    0.012
10696.0    0.012
10697.0    0.012
10698.0    0.012
10699.0    0.012
10700.0    0.012
10701.0    0.012
10702.0    0.012
10703.0    0.012
10704.0    0.012
10705.0    0.012
10706.0    0.012
10707.0    0.012
10708.0    0.012
10709.0    0.012
10710.0    0.012
10711.0    0.012
10712.0    0.012
10713.0    0.012
10714.0    0.012
10715.0    0.012
10716.0    0.011
10717.0    0.011
10718.0    0.011
10719.0    0.011
10720.0    0.011
10721.0    0.011
10722.0    0.011
10723.0    0.011
10724.0    0.011
10725.0    0.011
10726.0    0.011
10727.0    0.011
10728.0    0.011
10729.0    0.010
10730.0    0.010
10731.0    0.010
10732.0    0.010
10733.0    0.010
10734.0    0.010
10735.0    0.010
10736.0    0.010
10737.0    0.010
10738.0    0.010
10739.0    0.010
10740.0    0.010
10741.0    0.009
10742.0    0.009
10743.0    0.009
10744.0    0.009
10745.0    0.009
10746.0    0.009
10747.0    0.009
10748.0    0.009
10749.0    0.009
10750.0    0.009
10751.0    0.009
10752.0    0.009
10753.0    0.009
10754.0    0.009
10755.0    0.009
10756.0    0.009
10757.0    0.009
10758.0    0.008
10759.0    0.008
10760.0    0.008
10761.0    0.008
10762.0    0.008
10763.0    0.008
10764.0    0.008
10765.0    0.008
10766.0    0.008
10767.0    0.008
10768.0    0.008
10769.0    0.008
10770.0    0.008
10771.0    0.008
10772.0    0.008
10773.0    0.008
10774.0    0.008
10775.0    0.007
10776.0    0.007
10777.0    0.007
10778.0    0.007
10779.0    0.007
10780.0    0.007
10781.0    0.007
10782.0    0.007
10783.0    0.007
10784.0    0.007
10785.0    0.007
10786.0    0.007
10787.0    0.006
10788.0    0.006
10789.0    0.006
10790.0    0.006
10791.0    0.006
10792.0    0.006
10793.0    0.006
10794.0    0.006
10795.0    0.006
10796.0    0.006
10797.0    0.006
10798.0    0.006
10799.0    0.006
10800.0    0.006
10801.0    0.006
10802.0    0.006
10803.0    0.006
10804.0    0.006
10805.0    0.006
10806.0    0.005
10807.0    0.005
10808.0    0.005
10809.0    0.005
10810.0    0.005
10811.0    0.005
10812.0    0.005
10813.0    0.005
10814.0    0.005
10815.0    0.005
10816.0    0.005
10817.0    0.005
10818.0    0.005
10819.0    0.005
10820.0    0.005
10821.0    0.005
10822.0    0.004
10823.0    0.004
10824.0    0.004
10825.0    0.004
10826.0    0.004
10827.0    0.004
10828.0    0.004
10829.0    0.004
10830.0    0.004
10831.0    0.004
10832.0    0.004
10833.0    0.004
10834.0    0.004
10835.0    0.004
10836.0    0.004
10837.0    0.004
10838.0    0.004
10839.0    0.004
10840.0    0.004
10841.0    0.004
10842.0    0.004
10843.0    0.004
10844.0    0.004
10845.0    0.004
10846.0    0.003
10847.0    0.003
10848.0    0.003
10849.0    0.003
10850.0    0.003
10851.0    0.003
10852.0    0.003
10853.0    0.003
10854.0    0.003
10855.0    0.003
10856.0    0.003
10857.0    0.003
10858.0    0.003
10859.0    0.003
10860.0    0.003
10861.0    0.003
10862.0    0.003
10863.0    0.003
10864.0    0.003
10865.0    0.003
10866.0    0.002
10867.0    0.002
10868.0    0.002
10869.0    0.002
10870.0    0.002
10871.0    0.002
10872.0    0.002
10873.0    0.002
10874.0    0.002
10875.0    0.002
10876.0    0.002
10877.0    0.002
10878.0    0.002
10879.0    0.002
10880.0    0.002
10881.0    0.002
10882.0    0.002
10883.0    0.002
10884.0    0.002
10885.0    0.002
10886.0    0.002
10887.0    0.002
10888.0    0.002
10889.0    0.002
10890.0    0.002
10891.0    0.002
10892.0    0.002
10893.0    0.002
10894.0    0.002
10895.0    0.001
10896.0    0.001
10897.0    0.001
10898.0    0.001
10899.0    0.001
10900.0    0.001
10901.0    0.001
10902.0    0.001
10903.0    0.001
10904.0    0.001
10905.0    0.001
10906.0    0.001
10907.0    0.001
10908.0    0.001
10909.0    0.001
10910.0    0.001
10911.0    0.001
10912.0    0.001
10913.0    0.001
10914.0    0.001
10915.0    0.001
10916.0    0.001
10917.0    0.001
10918.0    0.001
10919.0    0.001
10920.0    0.001
10921.0    0.001
10922.0    0.001
10923.0    0.001
10924.0    0.001
10925.0    0.001
10926.0    0.001
10927.0    0.001
10928.0    0.001
10929.0    0.001
10930.0    0.001
10931.0    0.001
10932.0    0.001
10933.0    0.001
10934.0    0.000
