# file: z_LSST.Euclid.pb
# system: AB
# comment: SPV2 values from SPV02 branch of the Euclid MDB
# comment: table LSST.z-TotalTransmissionsAsOfMarch2017.dat
# filter: z_LSST
# instrument: Euclid
# description: Full system QE
# url: http://euclid.esac.esa.int/epdb/db/SPV02/
# xref: 8691.0 Angstrom
# xtype: wavelength
# ytype: qe
# reference: Euclid Consortium Mission Performance Document, V 2.0
# xunit: Angstrom
8030.0    0.000
8031.0    0.001
8032.0    0.002
8033.0    0.003
8034.0    0.004
8035.0    0.004
8036.0    0.005
8037.0    0.006
8038.0    0.007
8039.0    0.008
8040.0    0.009
8041.0    0.010
8042.0    0.011
8043.0    0.011
8044.0    0.012
8045.0    0.013
8046.0    0.014
8047.0    0.015
8048.0    0.016
8049.0    0.017
8050.0    0.018
8051.0    0.018
8052.0    0.019
8053.0    0.020
8054.0    0.021
8055.0    0.022
8056.0    0.023
8057.0    0.024
8058.0    0.025
8059.0    0.026
8060.0    0.026
8061.0    0.027
8062.0    0.028
8063.0    0.029
8064.0    0.030
8065.0    0.031
8066.0    0.032
8067.0    0.033
8068.0    0.033
8069.0    0.034
8070.0    0.035
8071.0    0.036
8072.0    0.037
8073.0    0.038
8074.0    0.039
8075.0    0.040
8076.0    0.040
8077.0    0.041
8078.0    0.042
8079.0    0.043
8080.0    0.044
8081.0    0.046
8082.0    0.047
8083.0    0.049
8084.0    0.051
8085.0    0.053
8086.0    0.054
8087.0    0.056
8088.0    0.058
8089.0    0.060
8090.0    0.061
8091.0    0.063
8092.0    0.065
8093.0    0.067
8094.0    0.068
8095.0    0.070
8096.0    0.072
8097.0    0.074
8098.0    0.075
8099.0    0.077
8100.0    0.079
8101.0    0.081
8102.0    0.082
8103.0    0.084
8104.0    0.086
8105.0    0.088
8106.0    0.089
8107.0    0.091
8108.0    0.093
8109.0    0.095
8110.0    0.096
8111.0    0.098
8112.0    0.100
8113.0    0.101
8114.0    0.103
8115.0    0.105
8116.0    0.106
8117.0    0.108
8118.0    0.110
8119.0    0.111
8120.0    0.113
8121.0    0.115
8122.0    0.116
8123.0    0.118
8124.0    0.120
8125.0    0.122
8126.0    0.123
8127.0    0.125
8128.0    0.126
8129.0    0.128
8130.0    0.129
8131.0    0.131
8132.0    0.132
8133.0    0.133
8134.0    0.134
8135.0    0.136
8136.0    0.137
8137.0    0.139
8138.0    0.140
8139.0    0.142
8140.0    0.143
8141.0    0.145
8142.0    0.146
8143.0    0.148
8144.0    0.150
8145.0    0.151
8146.0    0.153
8147.0    0.154
8148.0    0.155
8149.0    0.157
8150.0    0.158
8151.0    0.159
8152.0    0.160
8153.0    0.162
8154.0    0.163
8155.0    0.164
8156.0    0.165
8157.0    0.167
8158.0    0.168
8159.0    0.169
8160.0    0.170
8161.0    0.172
8162.0    0.173
8163.0    0.175
8164.0    0.176
8165.0    0.177
8166.0    0.179
8167.0    0.182
8168.0    0.184
8169.0    0.186
8170.0    0.188
8171.0    0.190
8172.0    0.191
8173.0    0.193
8174.0    0.195
8175.0    0.196
8176.0    0.197
8177.0    0.198
8178.0    0.199
8179.0    0.200
8180.0    0.201
8181.0    0.203
8182.0    0.205
8183.0    0.207
8184.0    0.210
8185.0    0.212
8186.0    0.214
8187.0    0.216
8188.0    0.218
8189.0    0.220
8190.0    0.223
8191.0    0.224
8192.0    0.226
8193.0    0.228
8194.0    0.229
8195.0    0.231
8196.0    0.233
8197.0    0.234
8198.0    0.236
8199.0    0.238
8200.0    0.239
8201.0    0.242
8202.0    0.245
8203.0    0.248
8204.0    0.251
8205.0    0.254
8206.0    0.257
8207.0    0.259
8208.0    0.262
8209.0    0.265
8210.0    0.268
8211.0    0.269
8212.0    0.271
8213.0    0.272
8214.0    0.274
8215.0    0.276
8216.0    0.277
8217.0    0.278
8218.0    0.279
8219.0    0.280
8220.0    0.281
8221.0    0.280
8222.0    0.279
8223.0    0.279
8224.0    0.278
8225.0    0.277
8226.0    0.276
8227.0    0.274
8228.0    0.272
8229.0    0.271
8230.0    0.269
8231.0    0.272
8232.0    0.275
8233.0    0.278
8234.0    0.281
8235.0    0.284
8236.0    0.289
8237.0    0.294
8238.0    0.299
8239.0    0.304
8240.0    0.309
8241.0    0.312
8242.0    0.315
8243.0    0.318
8244.0    0.321
8245.0    0.324
8246.0    0.326
8247.0    0.328
8248.0    0.330
8249.0    0.332
8250.0    0.334
8251.0    0.336
8252.0    0.337
8253.0    0.339
8254.0    0.340
8255.0    0.341
8256.0    0.343
8257.0    0.344
8258.0    0.345
8259.0    0.347
8260.0    0.348
8261.0    0.351
8262.0    0.353
8263.0    0.356
8264.0    0.358
8265.0    0.361
8266.0    0.363
8267.0    0.365
8268.0    0.367
8269.0    0.369
8270.0    0.371
8271.0    0.371
8272.0    0.371
8273.0    0.371
8274.0    0.370
8275.0    0.370
8276.0    0.371
8277.0    0.371
8278.0    0.372
8279.0    0.372
8280.0    0.373
8281.0    0.375
8282.0    0.378
8283.0    0.380
8284.0    0.382
8285.0    0.385
8286.0    0.387
8287.0    0.388
8288.0    0.390
8289.0    0.391
8290.0    0.391
8291.0    0.393
8292.0    0.394
8293.0    0.395
8294.0    0.396
8295.0    0.397
8296.0    0.399
8297.0    0.400
8298.0    0.402
8299.0    0.404
8300.0    0.405
8301.0    0.406
8302.0    0.408
8303.0    0.409
8304.0    0.410
8305.0    0.411
8306.0    0.413
8307.0    0.414
8308.0    0.416
8309.0    0.418
8310.0    0.419
8311.0    0.420
8312.0    0.421
8313.0    0.422
8314.0    0.422
8315.0    0.423
8316.0    0.423
8317.0    0.423
8318.0    0.423
8319.0    0.423
8320.0    0.422
8321.0    0.424
8322.0    0.426
8323.0    0.426
8324.0    0.427
8325.0    0.428
8326.0    0.429
8327.0    0.430
8328.0    0.431
8329.0    0.432
8330.0    0.433
8331.0    0.433
8332.0    0.433
8333.0    0.433
8334.0    0.432
8335.0    0.432
8336.0    0.432
8337.0    0.432
8338.0    0.433
8339.0    0.433
8340.0    0.433
8341.0    0.433
8342.0    0.434
8343.0    0.435
8344.0    0.436
8345.0    0.436
8346.0    0.437
8347.0    0.437
8348.0    0.437
8349.0    0.437
8350.0    0.438
8351.0    0.437
8352.0    0.437
8353.0    0.437
8354.0    0.437
8355.0    0.437
8356.0    0.437
8357.0    0.437
8358.0    0.437
8359.0    0.437
8360.0    0.437
8361.0    0.437
8362.0    0.437
8363.0    0.437
8364.0    0.437
8365.0    0.437
8366.0    0.437
8367.0    0.438
8368.0    0.438
8369.0    0.438
8370.0    0.438
8371.0    0.438
8372.0    0.438
8373.0    0.438
8374.0    0.438
8375.0    0.439
8376.0    0.439
8377.0    0.439
8378.0    0.439
8379.0    0.439
8380.0    0.439
8381.0    0.439
8382.0    0.439
8383.0    0.439
8384.0    0.439
8385.0    0.439
8386.0    0.439
8387.0    0.439
8388.0    0.439
8389.0    0.439
8390.0    0.439
8391.0    0.439
8392.0    0.439
8393.0    0.439
8394.0    0.439
8395.0    0.439
8396.0    0.439
8397.0    0.440
8398.0    0.440
8399.0    0.440
8400.0    0.440
8401.0    0.440
8402.0    0.440
8403.0    0.439
8404.0    0.439
8405.0    0.439
8406.0    0.439
8407.0    0.439
8408.0    0.439
8409.0    0.439
8410.0    0.439
8411.0    0.439
8412.0    0.439
8413.0    0.439
8414.0    0.439
8415.0    0.439
8416.0    0.439
8417.0    0.439
8418.0    0.439
8419.0    0.439
8420.0    0.439
8421.0    0.440
8422.0    0.440
8423.0    0.440
8424.0    0.440
8425.0    0.440
8426.0    0.440
8427.0    0.440
8428.0    0.440
8429.0    0.440
8430.0    0.440
8431.0    0.440
8432.0    0.440
8433.0    0.440
8434.0    0.440
8435.0    0.440
8436.0    0.440
8437.0    0.440
8438.0    0.440
8439.0    0.440
8440.0    0.440
8441.0    0.440
8442.0    0.440
8443.0    0.440
8444.0    0.440
8445.0    0.440
8446.0    0.440
8447.0    0.440
8448.0    0.440
8449.0    0.440
8450.0    0.440
8451.0    0.440
8452.0    0.441
8453.0    0.441
8454.0    0.441
8455.0    0.441
8456.0    0.441
8457.0    0.441
8458.0    0.441
8459.0    0.441
8460.0    0.441
8461.0    0.441
8462.0    0.440
8463.0    0.440
8464.0    0.440
8465.0    0.440
8466.0    0.440
8467.0    0.440
8468.0    0.440
8469.0    0.440
8470.0    0.440
8471.0    0.440
8472.0    0.440
8473.0    0.440
8474.0    0.441
8475.0    0.441
8476.0    0.440
8477.0    0.440
8478.0    0.440
8479.0    0.440
8480.0    0.440
8481.0    0.440
8482.0    0.440
8483.0    0.440
8484.0    0.440
8485.0    0.440
8486.0    0.440
8487.0    0.441
8488.0    0.441
8489.0    0.441
8490.0    0.441
8491.0    0.441
8492.0    0.441
8493.0    0.441
8494.0    0.441
8495.0    0.441
8496.0    0.441
8497.0    0.441
8498.0    0.440
8499.0    0.440
8500.0    0.440
8501.0    0.440
8502.0    0.440
8503.0    0.440
8504.0    0.441
8505.0    0.441
8506.0    0.441
8507.0    0.441
8508.0    0.441
8509.0    0.441
8510.0    0.441
8511.0    0.441
8512.0    0.440
8513.0    0.440
8514.0    0.440
8515.0    0.440
8516.0    0.440
8517.0    0.441
8518.0    0.441
8519.0    0.441
8520.0    0.441
8521.0    0.441
8522.0    0.441
8523.0    0.441
8524.0    0.441
8525.0    0.441
8526.0    0.441
8527.0    0.441
8528.0    0.441
8529.0    0.442
8530.0    0.442
8531.0    0.442
8532.0    0.442
8533.0    0.442
8534.0    0.442
8535.0    0.442
8536.0    0.442
8537.0    0.441
8538.0    0.441
8539.0    0.441
8540.0    0.441
8541.0    0.441
8542.0    0.441
8543.0    0.441
8544.0    0.441
8545.0    0.441
8546.0    0.441
8547.0    0.442
8548.0    0.442
8549.0    0.442
8550.0    0.442
8551.0    0.442
8552.0    0.442
8553.0    0.442
8554.0    0.442
8555.0    0.442
8556.0    0.442
8557.0    0.443
8558.0    0.443
8559.0    0.443
8560.0    0.443
8561.0    0.443
8562.0    0.443
8563.0    0.443
8564.0    0.443
8565.0    0.443
8566.0    0.443
8567.0    0.443
8568.0    0.443
8569.0    0.443
8570.0    0.443
8571.0    0.443
8572.0    0.443
8573.0    0.443
8574.0    0.443
8575.0    0.443
8576.0    0.443
8577.0    0.443
8578.0    0.443
8579.0    0.443
8580.0    0.443
8581.0    0.443
8582.0    0.443
8583.0    0.443
8584.0    0.443
8585.0    0.443
8586.0    0.443
8587.0    0.443
8588.0    0.443
8589.0    0.443
8590.0    0.443
8591.0    0.443
8592.0    0.443
8593.0    0.443
8594.0    0.443
8595.0    0.443
8596.0    0.443
8597.0    0.443
8598.0    0.443
8599.0    0.444
8600.0    0.444
8601.0    0.444
8602.0    0.443
8603.0    0.443
8604.0    0.443
8605.0    0.443
8606.0    0.443
8607.0    0.443
8608.0    0.443
8609.0    0.443
8610.0    0.443
8611.0    0.443
8612.0    0.443
8613.0    0.443
8614.0    0.443
8615.0    0.443
8616.0    0.443
8617.0    0.443
8618.0    0.443
8619.0    0.443
8620.0    0.443
8621.0    0.443
8622.0    0.443
8623.0    0.443
8624.0    0.443
8625.0    0.444
8626.0    0.444
8627.0    0.444
8628.0    0.443
8629.0    0.443
8630.0    0.443
8631.0    0.443
8632.0    0.444
8633.0    0.444
8634.0    0.444
8635.0    0.444
8636.0    0.444
8637.0    0.444
8638.0    0.444
8639.0    0.444
8640.0    0.444
8641.0    0.444
8642.0    0.444
8643.0    0.444
8644.0    0.444
8645.0    0.444
8646.0    0.444
8647.0    0.444
8648.0    0.444
8649.0    0.444
8650.0    0.444
8651.0    0.444
8652.0    0.444
8653.0    0.444
8654.0    0.444
8655.0    0.444
8656.0    0.444
8657.0    0.444
8658.0    0.444
8659.0    0.444
8660.0    0.444
8661.0    0.444
8662.0    0.444
8663.0    0.444
8664.0    0.444
8665.0    0.444
8666.0    0.444
8667.0    0.444
8668.0    0.444
8669.0    0.444
8670.0    0.444
8671.0    0.444
8672.0    0.444
8673.0    0.444
8674.0    0.444
8675.0    0.444
8676.0    0.444
8677.0    0.443
8678.0    0.443
8679.0    0.443
8680.0    0.443
8681.0    0.443
8682.0    0.443
8683.0    0.443
8684.0    0.443
8685.0    0.443
8686.0    0.443
8687.0    0.443
8688.0    0.444
8689.0    0.444
8690.0    0.444
8691.0    0.444
8692.0    0.444
8693.0    0.444
8694.0    0.443
8695.0    0.443
8696.0    0.444
8697.0    0.444
8698.0    0.444
8699.0    0.444
8700.0    0.444
8701.0    0.444
8702.0    0.444
8703.0    0.444
8704.0    0.444
8705.0    0.444
8706.0    0.444
8707.0    0.443
8708.0    0.443
8709.0    0.443
8710.0    0.443
8711.0    0.443
8712.0    0.443
8713.0    0.443
8714.0    0.443
8715.0    0.443
8716.0    0.443
8717.0    0.443
8718.0    0.443
8719.0    0.443
8720.0    0.443
8721.0    0.443
8722.0    0.443
8723.0    0.442
8724.0    0.442
8725.0    0.442
8726.0    0.442
8727.0    0.442
8728.0    0.442
8729.0    0.442
8730.0    0.442
8731.0    0.442
8732.0    0.442
8733.0    0.442
8734.0    0.442
8735.0    0.442
8736.0    0.442
8737.0    0.442
8738.0    0.442
8739.0    0.442
8740.0    0.442
8741.0    0.442
8742.0    0.442
8743.0    0.442
8744.0    0.442
8745.0    0.442
8746.0    0.442
8747.0    0.442
8748.0    0.442
8749.0    0.442
8750.0    0.442
8751.0    0.441
8752.0    0.441
8753.0    0.441
8754.0    0.441
8755.0    0.441
8756.0    0.441
8757.0    0.441
8758.0    0.441
8759.0    0.441
8760.0    0.441
8761.0    0.441
8762.0    0.441
8763.0    0.441
8764.0    0.441
8765.0    0.441
8766.0    0.441
8767.0    0.441
8768.0    0.441
8769.0    0.441
8770.0    0.441
8771.0    0.441
8772.0    0.441
8773.0    0.441
8774.0    0.441
8775.0    0.441
8776.0    0.441
8777.0    0.441
8778.0    0.441
8779.0    0.441
8780.0    0.441
8781.0    0.441
8782.0    0.441
8783.0    0.441
8784.0    0.440
8785.0    0.440
8786.0    0.440
8787.0    0.440
8788.0    0.440
8789.0    0.440
8790.0    0.440
8791.0    0.440
8792.0    0.440
8793.0    0.440
8794.0    0.440
8795.0    0.440
8796.0    0.440
8797.0    0.441
8798.0    0.441
8799.0    0.441
8800.0    0.441
8801.0    0.441
8802.0    0.441
8803.0    0.441
8804.0    0.441
8805.0    0.441
8806.0    0.441
8807.0    0.441
8808.0    0.441
8809.0    0.441
8810.0    0.441
8811.0    0.441
8812.0    0.441
8813.0    0.441
8814.0    0.441
8815.0    0.441
8816.0    0.441
8817.0    0.441
8818.0    0.441
8819.0    0.440
8820.0    0.440
8821.0    0.440
8822.0    0.440
8823.0    0.440
8824.0    0.440
8825.0    0.440
8826.0    0.440
8827.0    0.440
8828.0    0.440
8829.0    0.440
8830.0    0.439
8831.0    0.439
8832.0    0.439
8833.0    0.439
8834.0    0.439
8835.0    0.439
8836.0    0.439
8837.0    0.439
8838.0    0.439
8839.0    0.439
8840.0    0.439
8841.0    0.439
8842.0    0.439
8843.0    0.439
8844.0    0.439
8845.0    0.439
8846.0    0.439
8847.0    0.439
8848.0    0.438
8849.0    0.438
8850.0    0.438
8851.0    0.438
8852.0    0.438
8853.0    0.438
8854.0    0.437
8855.0    0.437
8856.0    0.437
8857.0    0.437
8858.0    0.437
8859.0    0.436
8860.0    0.436
8861.0    0.436
8862.0    0.436
8863.0    0.436
8864.0    0.436
8865.0    0.436
8866.0    0.436
8867.0    0.436
8868.0    0.436
8869.0    0.436
8870.0    0.436
8871.0    0.436
8872.0    0.436
8873.0    0.436
8874.0    0.436
8875.0    0.436
8876.0    0.436
8877.0    0.436
8878.0    0.435
8879.0    0.435
8880.0    0.435
8881.0    0.435
8882.0    0.435
8883.0    0.435
8884.0    0.435
8885.0    0.435
8886.0    0.435
8887.0    0.435
8888.0    0.436
8889.0    0.436
8890.0    0.436
8891.0    0.436
8892.0    0.436
8893.0    0.435
8894.0    0.435
8895.0    0.435
8896.0    0.435
8897.0    0.435
8898.0    0.434
8899.0    0.434
8900.0    0.434
8901.0    0.434
8902.0    0.434
8903.0    0.433
8904.0    0.433
8905.0    0.432
8906.0    0.432
8907.0    0.432
8908.0    0.432
8909.0    0.432
8910.0    0.432
8911.0    0.431
8912.0    0.431
8913.0    0.431
8914.0    0.431
8915.0    0.431
8916.0    0.430
8917.0    0.430
8918.0    0.430
8919.0    0.430
8920.0    0.430
8921.0    0.429
8922.0    0.429
8923.0    0.429
8924.0    0.428
8925.0    0.428
8926.0    0.427
8927.0    0.427
8928.0    0.426
8929.0    0.425
8930.0    0.425
8931.0    0.424
8932.0    0.424
8933.0    0.423
8934.0    0.423
8935.0    0.422
8936.0    0.422
8937.0    0.422
8938.0    0.422
8939.0    0.422
8940.0    0.421
8941.0    0.421
8942.0    0.420
8943.0    0.419
8944.0    0.419
8945.0    0.418
8946.0    0.417
8947.0    0.416
8948.0    0.414
8949.0    0.413
8950.0    0.412
8951.0    0.411
8952.0    0.409
8953.0    0.408
8954.0    0.406
8955.0    0.405
8956.0    0.403
8957.0    0.402
8958.0    0.401
8959.0    0.400
8960.0    0.399
8961.0    0.398
8962.0    0.396
8963.0    0.395
8964.0    0.394
8965.0    0.392
8966.0    0.392
8967.0    0.391
8968.0    0.391
8969.0    0.390
8970.0    0.389
8971.0    0.390
8972.0    0.391
8973.0    0.392
8974.0    0.393
8975.0    0.394
8976.0    0.394
8977.0    0.395
8978.0    0.395
8979.0    0.396
8980.0    0.396
8981.0    0.393
8982.0    0.390
8983.0    0.386
8984.0    0.383
8985.0    0.380
8986.0    0.375
8987.0    0.371
8988.0    0.367
8989.0    0.362
8990.0    0.358
8991.0    0.360
8992.0    0.362
8993.0    0.364
8994.0    0.365
8995.0    0.367
8996.0    0.370
8997.0    0.373
8998.0    0.376
8999.0    0.378
9000.0    0.381
9001.0    0.380
9002.0    0.379
9003.0    0.378
9004.0    0.377
9005.0    0.376
9006.0    0.376
9007.0    0.376
9008.0    0.376
9009.0    0.376
9010.0    0.377
9011.0    0.377
9012.0    0.378
9013.0    0.379
9014.0    0.379
9015.0    0.380
9016.0    0.380
9017.0    0.379
9018.0    0.379
9019.0    0.379
9020.0    0.378
9021.0    0.378
9022.0    0.377
9023.0    0.376
9024.0    0.376
9025.0    0.375
9026.0    0.376
9027.0    0.377
9028.0    0.378
9029.0    0.379
9030.0    0.380
9031.0    0.383
9032.0    0.385
9033.0    0.388
9034.0    0.391
9035.0    0.393
9036.0    0.395
9037.0    0.397
9038.0    0.399
9039.0    0.400
9040.0    0.402
9041.0    0.402
9042.0    0.401
9043.0    0.401
9044.0    0.400
9045.0    0.400
9046.0    0.399
9047.0    0.399
9048.0    0.398
9049.0    0.398
9050.0    0.397
9051.0    0.397
9052.0    0.397
9053.0    0.397
9054.0    0.397
9055.0    0.397
9056.0    0.396
9057.0    0.396
9058.0    0.395
9059.0    0.395
9060.0    0.394
9061.0    0.392
9062.0    0.390
9063.0    0.388
9064.0    0.386
9065.0    0.384
9066.0    0.381
9067.0    0.379
9068.0    0.377
9069.0    0.375
9070.0    0.372
9071.0    0.371
9072.0    0.370
9073.0    0.370
9074.0    0.369
9075.0    0.368
9076.0    0.367
9077.0    0.367
9078.0    0.367
9079.0    0.366
9080.0    0.366
9081.0    0.366
9082.0    0.366
9083.0    0.366
9084.0    0.366
9085.0    0.367
9086.0    0.367
9087.0    0.367
9088.0    0.367
9089.0    0.366
9090.0    0.366
9091.0    0.367
9092.0    0.367
9093.0    0.367
9094.0    0.367
9095.0    0.366
9096.0    0.366
9097.0    0.365
9098.0    0.365
9099.0    0.364
9100.0    0.363
9101.0    0.362
9102.0    0.361
9103.0    0.359
9104.0    0.358
9105.0    0.356
9106.0    0.356
9107.0    0.356
9108.0    0.357
9109.0    0.357
9110.0    0.357
9111.0    0.357
9112.0    0.356
9113.0    0.356
9114.0    0.355
9115.0    0.355
9116.0    0.353
9117.0    0.351
9118.0    0.350
9119.0    0.348
9120.0    0.346
9121.0    0.346
9122.0    0.346
9123.0    0.346
9124.0    0.347
9125.0    0.347
9126.0    0.344
9127.0    0.341
9128.0    0.338
9129.0    0.334
9130.0    0.331
9131.0    0.327
9132.0    0.324
9133.0    0.320
9134.0    0.317
9135.0    0.313
9136.0    0.313
9137.0    0.314
9138.0    0.314
9139.0    0.314
9140.0    0.314
9141.0    0.315
9142.0    0.316
9143.0    0.317
9144.0    0.318
9145.0    0.318
9146.0    0.316
9147.0    0.314
9148.0    0.312
9149.0    0.309
9150.0    0.307
9151.0    0.302
9152.0    0.297
9153.0    0.292
9154.0    0.287
9155.0    0.283
9156.0    0.282
9157.0    0.281
9158.0    0.281
9159.0    0.280
9160.0    0.279
9161.0    0.281
9162.0    0.283
9163.0    0.284
9164.0    0.286
9165.0    0.287
9166.0    0.286
9167.0    0.285
9168.0    0.283
9169.0    0.282
9170.0    0.280
9171.0    0.277
9172.0    0.273
9173.0    0.270
9174.0    0.266
9175.0    0.263
9176.0    0.260
9177.0    0.258
9178.0    0.256
9179.0    0.254
9180.0    0.251
9181.0    0.251
9182.0    0.251
9183.0    0.251
9184.0    0.251
9185.0    0.251
9186.0    0.251
9187.0    0.251
9188.0    0.251
9189.0    0.251
9190.0    0.251
9191.0    0.250
9192.0    0.249
9193.0    0.248
9194.0    0.247
9195.0    0.245
9196.0    0.244
9197.0    0.242
9198.0    0.241
9199.0    0.239
9200.0    0.238
9201.0    0.237
9202.0    0.236
9203.0    0.235
9204.0    0.234
9205.0    0.233
9206.0    0.232
9207.0    0.230
9208.0    0.228
9209.0    0.226
9210.0    0.225
9211.0    0.223
9212.0    0.220
9213.0    0.218
9214.0    0.216
9215.0    0.214
9216.0    0.212
9217.0    0.211
9218.0    0.209
9219.0    0.207
9220.0    0.206
9221.0    0.205
9222.0    0.204
9223.0    0.202
9224.0    0.201
9225.0    0.200
9226.0    0.199
9227.0    0.197
9228.0    0.195
9229.0    0.194
9230.0    0.192
9231.0    0.190
9232.0    0.188
9233.0    0.187
9234.0    0.185
9235.0    0.183
9236.0    0.181
9237.0    0.180
9238.0    0.178
9239.0    0.176
9240.0    0.174
9241.0    0.173
9242.0    0.171
9243.0    0.169
9244.0    0.167
9245.0    0.166
9246.0    0.164
9247.0    0.163
9248.0    0.161
9249.0    0.160
9250.0    0.158
9251.0    0.157
9252.0    0.155
9253.0    0.154
9254.0    0.153
9255.0    0.151
9256.0    0.150
9257.0    0.148
9258.0    0.147
9259.0    0.145
9260.0    0.144
9261.0    0.143
9262.0    0.141
9263.0    0.140
9264.0    0.138
9265.0    0.137
9266.0    0.135
9267.0    0.134
9268.0    0.133
9269.0    0.131
9270.0    0.130
9271.0    0.128
9272.0    0.126
9273.0    0.123
9274.0    0.121
9275.0    0.119
9276.0    0.117
9277.0    0.114
9278.0    0.112
9279.0    0.110
9280.0    0.107
9281.0    0.106
9282.0    0.104
9283.0    0.103
9284.0    0.101
9285.0    0.100
9286.0    0.098
9287.0    0.096
9288.0    0.095
9289.0    0.093
9290.0    0.092
9291.0    0.090
9292.0    0.088
9293.0    0.086
9294.0    0.085
9295.0    0.083
9296.0    0.081
9297.0    0.079
9298.0    0.077
9299.0    0.075
9300.0    0.073
9301.0    0.071
9302.0    0.069
9303.0    0.067
9304.0    0.065
9305.0    0.064
9306.0    0.062
9307.0    0.060
9308.0    0.059
9309.0    0.057
9310.0    0.055
9311.0    0.054
9312.0    0.052
9313.0    0.050
9314.0    0.049
9315.0    0.047
9316.0    0.045
9317.0    0.043
9318.0    0.041
9319.0    0.039
9320.0    0.038
9321.0    0.036
9322.0    0.035
9323.0    0.034
9324.0    0.033
9325.0    0.031
9326.0    0.031
9327.0    0.030
9328.0    0.029
9329.0    0.028
9330.0    0.027
9331.0    0.026
9332.0    0.025
9333.0    0.024
9334.0    0.023
9335.0    0.022
9336.0    0.021
9337.0    0.020
9338.0    0.019
9339.0    0.018
9340.0    0.017
9341.0    0.017
9342.0    0.016
9343.0    0.016
9344.0    0.015
9345.0    0.014
9346.0    0.015
9347.0    0.015
9348.0    0.015
9349.0    0.015
9350.0    0.015
9351.0    0.014
9352.0    0.014
9353.0    0.014
9354.0    0.013
9355.0    0.013
9356.0    0.013
9357.0    0.012
9358.0    0.011
9359.0    0.011
9360.0    0.010
9361.0    0.010
9362.0    0.010
9363.0    0.009
9364.0    0.009
9365.0    0.008
9366.0    0.008
9367.0    0.007
9368.0    0.007
9369.0    0.007
9370.0    0.006
9371.0    0.006
9372.0    0.005
9373.0    0.005
9374.0    0.005
9375.0    0.004
9376.0    0.004
9377.0    0.003
9378.0    0.003
9379.0    0.003
9380.0    0.002
9381.0    0.002
9382.0    0.001
9383.0    0.001
9384.0    0.000
