# file: g.SDSS.pb
# description: Telescope + Instrument + Atmosphere
# airmass: 1.3
# xref: 470.3 nm
# ytype: qe
# reference: Doi et al., 2010, AJ 139. 1628
# filter: g
# url: http://adsabs.harvard.edu/abs/2010AJ....139.1628D
# atmosphere: SDSS-2.5m
# xtype: wavelength
# instrument: SDSS
# system: AB
# xunit: Angstrom
 3600.0    0.000000
 3620.0    0.000200
 3640.0    0.001500
 3660.0    0.002700
 3680.0    0.003800
 3700.0    0.003500
 3720.0    0.003200
 3740.0    0.003100
 3760.0    0.003700
 3780.0    0.004800
 3800.0    0.006700
 3820.0    0.011500
 3840.0    0.022000
 3860.0    0.035300
 3880.0    0.050700
 3900.0    0.074000
 3920.0    0.097300
 3940.0    0.122400
 3960.0    0.148400
 3980.0    0.175700
 4000.0    0.208100
 4020.0    0.240400
 4040.0    0.261700
 4060.0    0.278500
 4080.0    0.295400
 4100.0    0.312200
 4120.0    0.329000
 4140.0    0.341100
 4160.0    0.351200
 4180.0    0.360300
 4200.0    0.366000
 4220.0    0.371700
 4240.0    0.377300
 4260.0    0.383000
 4280.0    0.388600
 4300.0    0.394300
 4320.0    0.399900
 4340.0    0.404300
 4360.0    0.408300
 4380.0    0.412200
 4400.0    0.416100
 4420.0    0.420000
 4440.0    0.424000
 4460.0    0.427900
 4480.0    0.431400
 4500.0    0.433700
 4520.0    0.435900
 4540.0    0.438100
 4560.0    0.440400
 4580.0    0.442600
 4600.0    0.444800
 4620.0    0.447000
 4640.0    0.448800
 4660.0    0.450400
 4680.0    0.452100
 4700.0    0.453700
 4720.0    0.455300
 4740.0    0.456900
 4760.0    0.458600
 4780.0    0.460100
 4800.0    0.461100
 4820.0    0.462200
 4840.0    0.463300
 4860.0    0.464400
 4880.0    0.465500
 4900.0    0.466600
 4920.0    0.467700
 4940.0    0.468700
 4960.0    0.469800
 4980.0    0.470900
 5000.0    0.471900
 5020.0    0.473000
 5040.0    0.474100
 5060.0    0.475200
 5080.0    0.476200
 5100.0    0.477000
 5120.0    0.476500
 5140.0    0.475300
 5160.0    0.473100
 5180.0    0.470400
 5200.0    0.467200
 5220.0    0.462500
 5240.0    0.451200
 5260.0    0.432600
 5280.0    0.399600
 5300.0    0.342900
 5320.0    0.276800
 5340.0    0.201300
 5360.0    0.139700
 5380.0    0.089900
 5400.0    0.058500
 5420.0    0.039800
 5440.0    0.026900
 5460.0    0.018900
 5480.0    0.013600
 5500.0    0.009600
 5520.0    0.006800
 5540.0    0.005100
 5560.0    0.003700
 5580.0    0.002400
 5600.0    0.001300
 5620.0    0.000200
 5640.0    0.000000
