# file: z.SDSS.pb
# description: Telescope + Instrument + Atmosphere
# airmass: 1.3
# xref: 889.2 nm
# ytype: qe
# reference: Doi et al., 2010, AJ 139. 1628
# filter: z
# url: http://adsabs.harvard.edu/abs/2010AJ....139.1628D
# atmosphere: SDSS-2.5m
# xtype: wavelength
# instrument: SDSS
# system: AB
# xunit: Angstrom
 7700.0    0.000000
 7720.0    0.000100
 7740.0    0.000100
 7760.0    0.000100
 7780.0    0.000100
 7800.0    0.000200
 7820.0    0.000200
 7840.0    0.000200
 7860.0    0.000300
 7880.0    0.000400
 7900.0    0.000600
 7920.0    0.000800
 7940.0    0.001000
 7960.0    0.001200
 7980.0    0.001600
 8000.0    0.002300
 8020.0    0.003000
 8040.0    0.004400
 8060.0    0.005900
 8080.0    0.007800
 8100.0    0.010500
 8120.0    0.013200
 8140.0    0.017100
 8160.0    0.021200
 8180.0    0.025700
 8200.0    0.030900
 8220.0    0.036200
 8240.0    0.041500
 8260.0    0.046700
 8280.0    0.051900
 8300.0    0.057000
 8320.0    0.062100
 8340.0    0.066400
 8360.0    0.070500
 8380.0    0.074200
 8400.0    0.077300
 8420.0    0.080300
 8440.0    0.082400
 8460.0    0.084500
 8480.0    0.086100
 8500.0    0.087100
 8520.0    0.088200
 8540.0    0.089300
 8560.0    0.090400
 8580.0    0.091100
 8600.0    0.091200
 8620.0    0.091300
 8640.0    0.091500
 8660.0    0.091700
 8680.0    0.091400
 8700.0    0.090600
 8720.0    0.089800
 8740.0    0.088900
 8760.0    0.088100
 8780.0    0.086900
 8800.0    0.085400
 8820.0    0.083800
 8840.0    0.082200
 8860.0    0.080600
 8880.0    0.079000
 8900.0    0.077200
 8920.0    0.075500
 8940.0    0.073800
 8960.0    0.072000
 8980.0    0.070400
 9000.0    0.068800
 9020.0    0.067200
 9040.0    0.065600
 9060.0    0.064000
 9080.0    0.062500
 9100.0    0.061200
 9120.0    0.059800
 9140.0    0.058500
 9160.0    0.057100
 9180.0    0.055900
 9200.0    0.054700
 9220.0    0.053500
 9240.0    0.052300
 9260.0    0.051100
 9280.0    0.049900
 9300.0    0.048700
 9320.0    0.047500
 9340.0    0.046300
 9360.0    0.045100
 9380.0    0.044000
 9400.0    0.043000
 9420.0    0.042000
 9440.0    0.041000
 9460.0    0.040000
 9480.0    0.039000
 9500.0    0.037900
 9520.0    0.036900
 9540.0    0.035800
 9560.0    0.034700
 9580.0    0.033700
 9600.0    0.032700
 9620.0    0.031700
 9640.0    0.030700
 9660.0    0.029700
 9680.0    0.028700
 9700.0    0.027600
 9720.0    0.026600
 9740.0    0.025600
 9760.0    0.024500
 9780.0    0.023500
 9800.0    0.022600
 9820.0    0.021600
 9840.0    0.020600
 9860.0    0.019600
 9880.0    0.018600
 9900.0    0.017600
 9920.0    0.016600
 9940.0    0.015600
 9960.0    0.014700
 9980.0    0.013800
10000.0    0.013200
10020.0    0.012500
10040.0    0.011900
10060.0    0.011300
10080.0    0.010600
10100.0    0.009900
10120.0    0.009300
10140.0    0.008600
10160.0    0.008000
10180.0    0.007400
10200.0    0.007000
10220.0    0.006500
10240.0    0.006100
10260.0    0.005600
10280.0    0.005200
10300.0    0.004700
10320.0    0.004200
10340.0    0.003800
10360.0    0.003300
10380.0    0.003000
10400.0    0.002900
10420.0    0.002700
10440.0    0.002600
10460.0    0.002400
10480.0    0.002200
10500.0    0.002100
10520.0    0.001900
10540.0    0.001800
10560.0    0.001600
10580.0    0.001500
10600.0    0.001400
10620.0    0.001300
10640.0    0.001200
10660.0    0.001200
10680.0    0.001100
10700.0    0.001000
10720.0    0.000900
10740.0    0.000800
10760.0    0.000700
10780.0    0.000700
10800.0    0.000700
10820.0    0.000600
10840.0    0.000600
10860.0    0.000600
10880.0    0.000500
10900.0    0.000500
10920.0    0.000500
10940.0    0.000400
10960.0    0.000400
10980.0    0.000400
11000.0    0.000300
11020.0    0.000300
11040.0    0.000200
11060.0    0.000200
11080.0    0.000200
11100.0    0.000100
11120.0    0.000100
11140.0    0.000100
11160.0    0.000000
