# filter: H
# instrument: 2MASS
# xtype: wavelength
# comment: passband bandwidth: 0.251 micron
# comment: Cohen (2003) bandwidth: 0.251 micron
# comment: Vega (Cohen, 1992) in inband flux: 2.837e-10 W / m2
# comment: Cohen (2003) inband flux: 2.843e-10 W / m2
# description: Full system RSR (atmosphere, telescope, instrument)
# system: Vega
# reference: Cohen et al., 2003, AJ 126, 1090
# xref: 1.662 micron
# ytype: rsr
# url: http://www.ipac.caltech.edu/2mass/releases/allsky/doc/sec6_4a.html
# file: H.2MASS.pb
# xunit: micron
 1.289000    0.000000
 1.315000    0.000000
 1.341000    0.000000
 1.368000    0.000000
 1.397000    0.000000
 1.418000    0.000017
 1.440000    0.000511
 1.462000    0.002766
 1.478000    0.008088
 1.486000    0.028736
 1.493000    0.087115
 1.504000    0.201449
 1.515000    0.438159
 1.528000    0.686357
 1.539000    0.818076
 1.546000    0.882073
 1.551000    0.911825
 1.556000    0.926872
 1.565000    0.929288
 1.572000    0.872747
 1.577000    0.856619
 1.583000    0.882556
 1.592000    0.918084
 1.597000    0.926654
 1.602000    0.907594
 1.613000    0.925974
 1.619000    0.920496
 1.628000    0.924198
 1.633000    0.923533
 1.642000    0.941788
 1.648000    0.949134
 1.657000    0.980658
 1.659000    0.993744
 1.671000    1.000000
 1.684000    0.956052
 1.701000    0.924116
 1.715000    0.982120
 1.727000    0.991589
 1.739000    0.988683
 1.746000    0.979168
 1.751000    0.968184
 1.753000    0.937040
 1.756000    0.918998
 1.764000    0.842264
 1.775000    0.667111
 1.785000    0.269402
 1.790000    0.451630
 1.796000    0.173062
 1.803000    0.107726
 1.810000    0.070700
 1.813000    0.005109
 1.818000    0.019970
 1.828000    0.000392
 1.835000    0.000002
 1.850000    0.000059
 1.871000    0.000000
 1.893000    0.000031
 1.914000    0.000000
