# filter: Ks
# instrument: 2MASS
# xtype: wavelength
# comment: passband bandwidth: 0.262 micron
# comment: Cohen (2003) bandwidth: 0.262 micron
# comment: Vega (Cohen, 1992) in inband flux: 1.122e-10 W / m2
# comment: Cohen (2003) inband flux: 1.122e-10 W / m2
# description: Full system RSR (atmosphere, telescope, instrument)
# system: Vega
# reference: Cohen et al., 2003, AJ 126, 1090
# xref: 2.159 micron
# ytype: rsr
# url: http://www.ipac.caltech.edu/2mass/releases/allsky/doc/sec6_4a.html
# file: Ks.2MASS.pb
# xunit: micron
 1.900000    0.000000
 1.915000    0.000008
 1.927000    0.000016
 1.934000    0.000159
 1.939000    0.000495
 1.948000    0.005376
 1.957000    0.011863
 1.962000    0.019703
 1.969000    0.042174
 1.976000    0.087306
 1.981000    0.152759
 1.989000    0.248173
 1.990000    0.190245
 1.998000    0.233884
 2.008000    0.294551
 2.014000    0.398217
 2.019000    0.336603
 2.028000    0.620746
 2.037000    0.764986
 2.045000    0.746412
 2.061000    0.625063
 2.072000    0.725492
 2.075000    0.689468
 2.082000    0.787906
 2.089000    0.818135
 2.099000    0.822833
 2.106000    0.863294
 2.113000    0.877829
 2.120000    0.854895
 2.124000    0.895329
 2.138000    0.918862
 2.145000    0.926769
 2.155000    0.926657
 2.169000    0.900943
 2.176000    0.922819
 2.185000    0.842755
 2.197000    0.945854
 2.208000    0.980363
 2.213000    0.987926
 2.218000    0.984788
 2.232000    0.964659
 2.237000    0.981633
 2.248000    0.983449
 2.256000    0.961316
 2.260000    0.979226
 2.263000    1.000000
 2.265000    0.963168
 2.270000    0.981193
 2.272000    0.968068
 2.276000    0.910892
 2.277000    0.982136
 2.281000    0.889606
 2.284000    0.891766
 2.286000    0.942380
 2.291000    0.840424
 2.293000    0.804239
 2.295000    0.707670
 2.297000    0.657619
 2.299000    0.560736
 2.306000    0.443653
 2.311000    0.348239
 2.316000    0.230228
 2.320000    0.162597
 2.325000    0.135967
 2.328000    0.092102
 2.335000    0.062390
 2.339000    0.043093
 2.344000    0.033981
 2.346000    0.030955
 2.352000    0.011811
 2.361000    0.006833
 2.363000    0.000749
 2.370000    0.002996
 2.375000    0.002097
 2.384000    0.000406
 2.399000    0.000000
